Summary
[Data Information]
Data is:,Measurement Data
Dataset Name:,RawData
Sample Name:,MD_P_amostra_P2_10-20_23_09_2025
Sample ID
Option
Analyst
Date/Time:,09/23/2025 04:54:09 PM
Comments
Parameter File Name:,Esfera de Integração.vspm
Report File Name
[Software Information]
Software Name:,LabSolutions UV-Vis
Version:,1.11
[Instrument Information]
Instrument Name:,UV-2600i
Instrument Type:,UV-2600 Series
Model (S/N):,UV-2600i (A12595900700)

Parameter
[Measurement]
Start:,1300 nm
End:,200 nm
Data Interval:,1.0
Scan Speed:,High speed
Spectrum Type:,Absorbance
[Accessories]
Accessories:,None
[Advanced]
Slit Width:,5.0
Detector Unit:,External (2 Detector)
Light Source Switch Wavelength:,323
Detector Switch Wavelength:,830
S/R Switch:,Standard
Stair Correction:,ON
[Repeat]
Repeat Measurement:,OFF
[Post-processing]
Spectrum Transformation:,OFF
Data Processing Table:,OFF
Print:,OFF

Wavelength (nm),Absorbance
200.0,-0.040
201.0,0.080
202.0,0.317
203.0,0.265
204.0,0.126
205.0,-0.029
206.0,-0.120
207.0,0.057
208.0,0.178
209.0,0.282
210.0,0.207
211.0,0.124
212.0,0.020
213.0,0.015
214.0,0.035
215.0,0.103
216.0,0.151
217.0,0.042
218.0,0.094
219.0,0.069
220.0,0.061
221.0,0.014
222.0,-0.073
223.0,0.028
224.0,0.109
225.0,0.112
226.0,0.141
227.0,-0.022
228.0,-0.036
229.0,-0.052
230.0,0.025
231.0,0.133
232.0,0.157
233.0,0.068
234.0,0.064
235.0,0.029
236.0,0.099
237.0,0.123
238.0,0.102
239.0,0.102
240.0,0.005
241.0,-0.021
242.0,0.042
243.0,0.153
244.0,0.133
245.0,-0.045
246.0,-0.065
247.0,-0.145
248.0,-0.132
249.0,-0.143
250.0,-0.030
251.0,0.054
252.0,0.055
253.0,0.106
254.0,0.113
255.0,-0.046
256.0,-0.178
257.0,-0.136
258.0,-0.030
259.0,0.017
260.0,0.046
261.0,0.035
262.0,0.155
263.0,0.192
264.0,0.169
265.0,-0.002
266.0,-0.118
267.0,-0.030
268.0,0.072
269.0,0.006
270.0,-0.058
271.0,-0.133
272.0,-0.000
273.0,-0.069
274.0,0.054
275.0,0.056
276.0,0.010
277.0,-0.125
278.0,-0.142
279.0,-0.078
280.0,-0.157
281.0,-0.195
282.0,-0.143
283.0,-0.073
284.0,-0.167
285.0,-0.221
286.0,-0.226
287.0,-0.187
288.0,-0.126
289.0,-0.180
290.0,-0.056
291.0,-0.151
292.0,-0.014
293.0,-0.077
294.0,0.008
295.0,-0.232
296.0,-0.309
297.0,-0.385
298.0,-0.295
299.0,-0.332
300.0,-0.470
301.0,-0.593
302.0,-0.700
303.0,-0.836
304.0,-0.944
305.0,-1.010
306.0,-0.973
307.0,-0.917
308.0,-0.884
309.0,-0.840
310.0,-0.777
311.0,-0.696
312.0,-0.600
313.0,-0.543
314.0,-0.500
315.0,-0.441
316.0,-0.365
317.0,-0.286
318.0,-0.223
319.0,-0.155
320.0,-0.099
321.0,-0.033
322.0,0.020
323.0,0.074
324.0,0.121
325.0,0.167
326.0,0.209
327.0,0.245
328.0,0.278
329.0,0.308
330.0,0.338
331.0,0.367
332.0,0.392
333.0,0.414
334.0,0.433
335.0,0.451
336.0,0.467
337.0,0.485
338.0,0.495
339.0,0.507
340.0,0.513
341.0,0.524
342.0,0.531
343.0,0.537
344.0,0.541
345.0,0.545
346.0,0.545
347.0,0.545
348.0,0.544
349.0,0.546
350.0,0.542
351.0,0.539
352.0,0.535
353.0,0.531
354.0,0.525
355.0,0.519
356.0,0.514
357.0,0.509
358.0,0.504
359.0,0.498
360.0,0.492
361.0,0.485
362.0,0.479
363.0,0.472
364.0,0.466
365.0,0.460
366.0,0.454
367.0,0.445
368.0,0.438
369.0,0.430
370.0,0.424
371.0,0.417
372.0,0.409
373.0,0.403
374.0,0.395
375.0,0.389
376.0,0.382
377.0,0.376
378.0,0.369
379.0,0.364
380.0,0.358
381.0,0.352
382.0,0.345
383.0,0.339
384.0,0.333
385.0,0.327
386.0,0.322
387.0,0.317
388.0,0.312
389.0,0.307
390.0,0.301
391.0,0.296
392.0,0.292
393.0,0.287
394.0,0.283
395.0,0.279
396.0,0.275
397.0,0.271
398.0,0.267
399.0,0.263
400.0,0.259
401.0,0.256
402.0,0.252
403.0,0.249
404.0,0.245
405.0,0.242
406.0,0.239
407.0,0.236
408.0,0.233
409.0,0.230
410.0,0.228
411.0,0.225
412.0,0.223
413.0,0.220
414.0,0.217
415.0,0.215
416.0,0.213
417.0,0.210
418.0,0.208
419.0,0.206
420.0,0.204
421.0,0.201
422.0,0.200
423.0,0.198
424.0,0.196
425.0,0.193
426.0,0.191
427.0,0.189
428.0,0.188
429.0,0.185
430.0,0.184
431.0,0.182
432.0,0.180
433.0,0.178
434.0,0.176
435.0,0.174
436.0,0.173
437.0,0.171
438.0,0.169
439.0,0.167
440.0,0.166
441.0,0.164
442.0,0.163
443.0,0.161
444.0,0.159
445.0,0.158
446.0,0.156
447.0,0.155
448.0,0.154
449.0,0.152
450.0,0.151
451.0,0.150
452.0,0.148
453.0,0.147
454.0,0.146
455.0,0.145
456.0,0.144
457.0,0.142
458.0,0.141
459.0,0.140
460.0,0.138
461.0,0.137
462.0,0.136
463.0,0.135
464.0,0.134
465.0,0.133
466.0,0.132
467.0,0.131
468.0,0.129
469.0,0.128
470.0,0.127
471.0,0.126
472.0,0.125
473.0,0.124
474.0,0.122
475.0,0.121
476.0,0.120
477.0,0.119
478.0,0.118
479.0,0.117
480.0,0.115
481.0,0.114
482.0,0.112
483.0,0.111
484.0,0.110
485.0,0.109
486.0,0.108
487.0,0.106
488.0,0.105
489.0,0.104
490.0,0.103
491.0,0.101
492.0,0.100
493.0,0.098
494.0,0.097
495.0,0.096
496.0,0.094
497.0,0.092
498.0,0.091
499.0,0.089
500.0,0.088
501.0,0.086
502.0,0.085
503.0,0.084
504.0,0.082
505.0,0.080
506.0,0.079
507.0,0.077
508.0,0.076
509.0,0.074
510.0,0.072
511.0,0.071
512.0,0.069
513.0,0.068
514.0,0.067
515.0,0.065
516.0,0.064
517.0,0.062
518.0,0.060
519.0,0.059
520.0,0.058
521.0,0.057
522.0,0.055
523.0,0.053
524.0,0.052
525.0,0.050
526.0,0.049
527.0,0.047
528.0,0.046
529.0,0.045
530.0,0.043
531.0,0.042
532.0,0.041
533.0,0.039
534.0,0.038
535.0,0.037
536.0,0.036
537.0,0.034
538.0,0.033
539.0,0.032
540.0,0.030
541.0,0.029
542.0,0.027
543.0,0.026
544.0,0.024
545.0,0.023
546.0,0.021
547.0,0.019
548.0,0.018
549.0,0.016
550.0,0.015
551.0,0.013
552.0,0.011
553.0,0.010
554.0,0.008
555.0,0.006
556.0,0.005
557.0,0.003
558.0,0.001
559.0,-0.000
560.0,-0.002
561.0,-0.004
562.0,-0.006
563.0,-0.007
564.0,-0.009
565.0,-0.011
566.0,-0.013
567.0,-0.015
568.0,-0.017
569.0,-0.019
570.0,-0.020
571.0,-0.022
572.0,-0.024
573.0,-0.026
574.0,-0.027
575.0,-0.029
576.0,-0.031
577.0,-0.033
578.0,-0.034
579.0,-0.036
580.0,-0.038
581.0,-0.039
582.0,-0.040
583.0,-0.042
584.0,-0.044
585.0,-0.045
586.0,-0.046
587.0,-0.048
588.0,-0.049
589.0,-0.051
590.0,-0.052
591.0,-0.054
592.0,-0.055
593.0,-0.056
594.0,-0.057
595.0,-0.059
596.0,-0.060
597.0,-0.061
598.0,-0.062
599.0,-0.063
600.0,-0.064
601.0,-0.065
602.0,-0.066
603.0,-0.067
604.0,-0.068
605.0,-0.069
606.0,-0.070
607.0,-0.071
608.0,-0.072
609.0,-0.073
610.0,-0.074
611.0,-0.074
612.0,-0.075
613.0,-0.076
614.0,-0.077
615.0,-0.077
616.0,-0.078
617.0,-0.079
618.0,-0.079
619.0,-0.080
620.0,-0.080
621.0,-0.081
622.0,-0.081
623.0,-0.082
624.0,-0.082
625.0,-0.083
626.0,-0.083
627.0,-0.084
628.0,-0.084
629.0,-0.085
630.0,-0.085
631.0,-0.086
632.0,-0.086
633.0,-0.086
634.0,-0.086
635.0,-0.087
636.0,-0.087
637.0,-0.087
638.0,-0.088
639.0,-0.088
640.0,-0.088
641.0,-0.088
642.0,-0.089
643.0,-0.089
644.0,-0.089
645.0,-0.089
646.0,-0.089
647.0,-0.089
648.0,-0.089
649.0,-0.089
650.0,-0.090
651.0,-0.090
652.0,-0.091
653.0,-0.090
654.0,-0.090
655.0,-0.090
656.0,-0.090
657.0,-0.090
658.0,-0.090
659.0,-0.090
660.0,-0.090
661.0,-0.090
662.0,-0.090
663.0,-0.090
664.0,-0.090
665.0,-0.090
666.0,-0.090
667.0,-0.089
668.0,-0.089
669.0,-0.089
670.0,-0.089
671.0,-0.089
672.0,-0.089
673.0,-0.089
674.0,-0.088
675.0,-0.088
676.0,-0.088
677.0,-0.088
678.0,-0.088
679.0,-0.087
680.0,-0.087
681.0,-0.087
682.0,-0.087
683.0,-0.086
684.0,-0.086
685.0,-0.086
686.0,-0.087
687.0,-0.087
688.0,-0.086
689.0,-0.086
690.0,-0.086
691.0,-0.086
692.0,-0.086
693.0,-0.086
694.0,-0.086
695.0,-0.086
696.0,-0.086
697.0,-0.086
698.0,-0.086
699.0,-0.086
700.0,-0.086
701.0,-0.086
702.0,-0.086
703.0,-0.086
704.0,-0.087
705.0,-0.087
706.0,-0.087
707.0,-0.087
708.0,-0.087
709.0,-0.087
710.0,-0.088
711.0,-0.088
712.0,-0.089
713.0,-0.090
714.0,-0.090
715.0,-0.090
716.0,-0.091
717.0,-0.092
718.0,-0.093
719.0,-0.093
720.0,-0.093
721.0,-0.094
722.0,-0.095
723.0,-0.096
724.0,-0.097
725.0,-0.099
726.0,-0.100
727.0,-0.101
728.0,-0.101
729.0,-0.102
730.0,-0.104
731.0,-0.104
732.0,-0.105
733.0,-0.106
734.0,-0.108
735.0,-0.109
736.0,-0.110
737.0,-0.111
738.0,-0.113
739.0,-0.113
740.0,-0.114
741.0,-0.115
742.0,-0.117
743.0,-0.118
744.0,-0.119
745.0,-0.120
746.0,-0.121
747.0,-0.122
748.0,-0.124
749.0,-0.125
750.0,-0.126
751.0,-0.127
752.0,-0.128
753.0,-0.129
754.0,-0.130
755.0,-0.132
756.0,-0.133
757.0,-0.134
758.0,-0.134
759.0,-0.135
760.0,-0.136
761.0,-0.136
762.0,-0.137
763.0,-0.137
764.0,-0.139
765.0,-0.140
766.0,-0.141
767.0,-0.142
768.0,-0.143
769.0,-0.143
770.0,-0.143
771.0,-0.144
772.0,-0.143
773.0,-0.144
774.0,-0.144
775.0,-0.145
776.0,-0.146
777.0,-0.146
778.0,-0.146
779.0,-0.146
780.0,-0.146
781.0,-0.145
782.0,-0.145
783.0,-0.144
784.0,-0.145
785.0,-0.145
786.0,-0.145
787.0,-0.144
788.0,-0.145
789.0,-0.144
790.0,-0.144
791.0,-0.142
792.0,-0.142
793.0,-0.141
794.0,-0.141
795.0,-0.140
796.0,-0.138
797.0,-0.137
798.0,-0.137
799.0,-0.137
800.0,-0.136
801.0,-0.134
802.0,-0.133
803.0,-0.133
804.0,-0.132
805.0,-0.130
806.0,-0.128
807.0,-0.126
808.0,-0.125
809.0,-0.124
810.0,-0.122
811.0,-0.120
812.0,-0.119
813.0,-0.118
814.0,-0.116
815.0,-0.114
816.0,-0.111
817.0,-0.110
818.0,-0.108
819.0,-0.106
820.0,-0.104
821.0,-0.102
822.0,-0.100
823.0,-0.097
824.0,-0.095
825.0,-0.092
826.0,-0.090
827.0,-0.087
828.0,-0.085
829.0,-0.083
830.0,-0.081
831.0,-0.079
832.0,-0.076
833.0,-0.072
834.0,-0.070
835.0,-0.067
836.0,-0.064
837.0,-0.062
838.0,-0.058
839.0,-0.056
840.0,-0.053
841.0,-0.050
842.0,-0.047
843.0,-0.044
844.0,-0.042
845.0,-0.039
846.0,-0.036
847.0,-0.034
848.0,-0.031
849.0,-0.028
850.0,-0.025
851.0,-0.022
852.0,-0.020
853.0,-0.017
854.0,-0.014
855.0,-0.011
856.0,-0.008
857.0,-0.006
858.0,-0.003
859.0,-0.000
860.0,0.003
861.0,0.004
862.0,0.006
863.0,0.008
864.0,0.010
865.0,0.013
866.0,0.015
867.0,0.018
868.0,0.019
869.0,0.022
870.0,0.024
871.0,0.025
872.0,0.026
873.0,0.028
874.0,0.028
875.0,0.029
876.0,0.030
877.0,0.030
878.0,0.031
879.0,0.031
880.0,0.031
881.0,0.031
882.0,0.032
883.0,0.031
884.0,0.032
885.0,0.031
886.0,0.030
887.0,0.029
888.0,0.029
889.0,0.028
890.0,0.028
891.0,0.027
892.0,0.026
893.0,0.024
894.0,0.023
895.0,0.023
896.0,0.021
897.0,0.021
898.0,0.019
899.0,0.018
900.0,0.016
901.0,0.014
902.0,0.013
903.0,0.011
904.0,0.010
905.0,0.008
906.0,0.006
907.0,0.005
908.0,0.003
909.0,0.001
910.0,-0.001
911.0,-0.002
912.0,-0.004
913.0,-0.006
914.0,-0.008
915.0,-0.010
916.0,-0.012
917.0,-0.014
918.0,-0.016
919.0,-0.018
920.0,-0.020
921.0,-0.022
922.0,-0.024
923.0,-0.026
924.0,-0.028
925.0,-0.031
926.0,-0.033
927.0,-0.035
928.0,-0.037
929.0,-0.039
930.0,-0.041
931.0,-0.043
932.0,-0.045
933.0,-0.047
934.0,-0.049
935.0,-0.051
936.0,-0.054
937.0,-0.056
938.0,-0.058
939.0,-0.061
940.0,-0.062
941.0,-0.064
942.0,-0.066
943.0,-0.068
944.0,-0.070
945.0,-0.072
946.0,-0.074
947.0,-0.076
948.0,-0.078
949.0,-0.080
950.0,-0.082
951.0,-0.084
952.0,-0.085
953.0,-0.087
954.0,-0.089
955.0,-0.091
956.0,-0.092
957.0,-0.094
958.0,-0.095
959.0,-0.097
960.0,-0.099
961.0,-0.100
962.0,-0.101
963.0,-0.103
964.0,-0.104
965.0,-0.105
966.0,-0.106
967.0,-0.107
968.0,-0.108
969.0,-0.110
970.0,-0.111
971.0,-0.112
972.0,-0.112
973.0,-0.113
974.0,-0.114
975.0,-0.115
976.0,-0.116
977.0,-0.117
978.0,-0.118
979.0,-0.119
980.0,-0.119
981.0,-0.120
982.0,-0.120
983.0,-0.121
984.0,-0.121
985.0,-0.121
986.0,-0.121
987.0,-0.122
988.0,-0.123
989.0,-0.123
990.0,-0.124
991.0,-0.124
992.0,-0.124
993.0,-0.125
994.0,-0.125
995.0,-0.125
996.0,-0.126
997.0,-0.126
998.0,-0.126
999.0,-0.126
1000.0,-0.126
1001.0,-0.126
1002.0,-0.126
1003.0,-0.127
1004.0,-0.127
1005.0,-0.127
1006.0,-0.127
1007.0,-0.127
1008.0,-0.127
1009.0,-0.127
1010.0,-0.127
1011.0,-0.128
1012.0,-0.128
1013.0,-0.128
1014.0,-0.128
1015.0,-0.128
1016.0,-0.128
1017.0,-0.128
1018.0,-0.128
1019.0,-0.128
1020.0,-0.128
1021.0,-0.128
1022.0,-0.128
1023.0,-0.128
1024.0,-0.128
1025.0,-0.128
1026.0,-0.128
1027.0,-0.127
1028.0,-0.127
1029.0,-0.127
1030.0,-0.127
1031.0,-0.127
1032.0,-0.127
1033.0,-0.127
1034.0,-0.127
1035.0,-0.126
1036.0,-0.126
1037.0,-0.126
1038.0,-0.126
1039.0,-0.126
1040.0,-0.126
1041.0,-0.125
1042.0,-0.125
1043.0,-0.125
1044.0,-0.125
1045.0,-0.125
1046.0,-0.125
1047.0,-0.124
1048.0,-0.124
1049.0,-0.124
1050.0,-0.124
1051.0,-0.123
1052.0,-0.123
1053.0,-0.123
1054.0,-0.123
1055.0,-0.122
1056.0,-0.122
1057.0,-0.122
1058.0,-0.121
1059.0,-0.121
1060.0,-0.121
1061.0,-0.121
1062.0,-0.120
1063.0,-0.120
1064.0,-0.120
1065.0,-0.119
1066.0,-0.119
1067.0,-0.119
1068.0,-0.118
1069.0,-0.118
1070.0,-0.118
1071.0,-0.117
1072.0,-0.117
1073.0,-0.117
1074.0,-0.116
1075.0,-0.116
1076.0,-0.116
1077.0,-0.115
1078.0,-0.115
1079.0,-0.115
1080.0,-0.114
1081.0,-0.114
1082.0,-0.114
1083.0,-0.113
1084.0,-0.113
1085.0,-0.113
1086.0,-0.112
1087.0,-0.112
1088.0,-0.112
1089.0,-0.111
1090.0,-0.111
1091.0,-0.111
1092.0,-0.110
1093.0,-0.110
1094.0,-0.110
1095.0,-0.109
1096.0,-0.109
1097.0,-0.109
1098.0,-0.108
1099.0,-0.108
1100.0,-0.107
1101.0,-0.107
1102.0,-0.106
1103.0,-0.106
1104.0,-0.106
1105.0,-0.105
1106.0,-0.105
1107.0,-0.105
1108.0,-0.104
1109.0,-0.104
1110.0,-0.104
1111.0,-0.104
1112.0,-0.103
1113.0,-0.103
1114.0,-0.102
1115.0,-0.102
1116.0,-0.102
1117.0,-0.101
1118.0,-0.101
1119.0,-0.101
1120.0,-0.100
1121.0,-0.100
1122.0,-0.100
1123.0,-0.099
1124.0,-0.099
1125.0,-0.098
1126.0,-0.098
1127.0,-0.098
1128.0,-0.098
1129.0,-0.097
1130.0,-0.097
1131.0,-0.097
1132.0,-0.097
1133.0,-0.096
1134.0,-0.096
1135.0,-0.095
1136.0,-0.095
1137.0,-0.095
1138.0,-0.095
1139.0,-0.094
1140.0,-0.094
1141.0,-0.094
1142.0,-0.094
1143.0,-0.094
1144.0,-0.094
1145.0,-0.094
1146.0,-0.094
1147.0,-0.094
1148.0,-0.094
1149.0,-0.094
1150.0,-0.094
1151.0,-0.094
1152.0,-0.093
1153.0,-0.093
1154.0,-0.093
1155.0,-0.092
1156.0,-0.092
1157.0,-0.091
1158.0,-0.091
1159.0,-0.090
1160.0,-0.090
1161.0,-0.089
1162.0,-0.089
1163.0,-0.088
1164.0,-0.088
1165.0,-0.087
1166.0,-0.087
1167.0,-0.085
1168.0,-0.084
1169.0,-0.084
1170.0,-0.084
1171.0,-0.083
1172.0,-0.083
1173.0,-0.082
1174.0,-0.081
1175.0,-0.080
1176.0,-0.080
1177.0,-0.080
1178.0,-0.079
1179.0,-0.079
1180.0,-0.078
1181.0,-0.077
1182.0,-0.076
1183.0,-0.076
1184.0,-0.075
1185.0,-0.075
1186.0,-0.074
1187.0,-0.073
1188.0,-0.073
1189.0,-0.073
1190.0,-0.073
1191.0,-0.072
1192.0,-0.072
1193.0,-0.071
1194.0,-0.070
1195.0,-0.069
1196.0,-0.069
1197.0,-0.069
1198.0,-0.068
1199.0,-0.067
1200.0,-0.067
1201.0,-0.067
1202.0,-0.067
1203.0,-0.066
1204.0,-0.065
1205.0,-0.065
1206.0,-0.065
1207.0,-0.064
1208.0,-0.064
1209.0,-0.063
1210.0,-0.063
1211.0,-0.062
1212.0,-0.062
1213.0,-0.062
1214.0,-0.061
1215.0,-0.061
1216.0,-0.060
1217.0,-0.060
1218.0,-0.060
1219.0,-0.060
1220.0,-0.059
1221.0,-0.059
1222.0,-0.058
1223.0,-0.058
1224.0,-0.058
1225.0,-0.057
1226.0,-0.057
1227.0,-0.056
1228.0,-0.056
1229.0,-0.056
1230.0,-0.056
1231.0,-0.056
1232.0,-0.056
1233.0,-0.055
1234.0,-0.055
1235.0,-0.054
1236.0,-0.054
1237.0,-0.054
1238.0,-0.054
1239.0,-0.054
1240.0,-0.054
1241.0,-0.053
1242.0,-0.052
1243.0,-0.052
1244.0,-0.052
1245.0,-0.052
1246.0,-0.052
1247.0,-0.052
1248.0,-0.052
1249.0,-0.051
1250.0,-0.051
1251.0,-0.051
1252.0,-0.051
1253.0,-0.050
1254.0,-0.050
1255.0,-0.050
1256.0,-0.050
1257.0,-0.050
1258.0,-0.049
1259.0,-0.049
1260.0,-0.049
1261.0,-0.049
1262.0,-0.049
1263.0,-0.048
1264.0,-0.048
1265.0,-0.048
1266.0,-0.048
1267.0,-0.048
1268.0,-0.048
1269.0,-0.048
1270.0,-0.048
1271.0,-0.047
1272.0,-0.047
1273.0,-0.047
1274.0,-0.047
1275.0,-0.047
1276.0,-0.047
1277.0,-0.047
1278.0,-0.047
1279.0,-0.047
1280.0,-0.047
1281.0,-0.046
1282.0,-0.045
1283.0,-0.046
1284.0,-0.046
1285.0,-0.046
1286.0,-0.046
1287.0,-0.046
1288.0,-0.045
1289.0,-0.045
1290.0,-0.045
1291.0,-0.044
1292.0,-0.044
1293.0,-0.043
1294.0,-0.044
1295.0,-0.044
1296.0,-0.045
1297.0,-0.044
1298.0,-0.044
1299.0,-0.044
1300.0,-0.044
