Summary
[Data Information]
Data is:,Measurement Data
Dataset Name:,RawData
Sample Name:,MD_P_amostra_P2_0-10_03_10_2025
Sample ID
Option
Analyst
Date/Time:,10/03/2025 09:55:26 AM
Comments
Parameter File Name:,Esfera de Integração.vspm
Report File Name
[Software Information]
Software Name:,LabSolutions UV-Vis
Version:,1.11
[Instrument Information]
Instrument Name:,UV-2600i
Instrument Type:,UV-2600 Series
Model (S/N):,UV-2600i (A12595900700)

Parameter
[Measurement]
Start:,1100 nm
End:,400 nm
Data Interval:,1.0
Scan Speed:,High speed
Spectrum Type:,Absorbance
[Accessories]
Accessories:,None
[Advanced]
Slit Width:,5.0
Detector Unit:,External (2 Detector)
Light Source Switch Wavelength:,323
Detector Switch Wavelength:,830
S/R Switch:,Standard
Stair Correction:,ON
[Repeat]
Repeat Measurement:,OFF
[Post-processing]
Spectrum Transformation:,OFF
Data Processing Table:,OFF
Print:,OFF

Wavelength (nm),Absorbance
400.0,0.387
401.0,0.383
402.0,0.379
403.0,0.375
404.0,0.371
405.0,0.366
406.0,0.363
407.0,0.359
408.0,0.356
409.0,0.353
410.0,0.351
411.0,0.348
412.0,0.347
413.0,0.345
414.0,0.344
415.0,0.343
416.0,0.342
417.0,0.341
418.0,0.341
419.0,0.341
420.0,0.341
421.0,0.341
422.0,0.342
423.0,0.342
424.0,0.343
425.0,0.345
426.0,0.346
427.0,0.346
428.0,0.348
429.0,0.349
430.0,0.351
431.0,0.353
432.0,0.356
433.0,0.358
434.0,0.361
435.0,0.363
436.0,0.365
437.0,0.368
438.0,0.370
439.0,0.374
440.0,0.377
441.0,0.380
442.0,0.383
443.0,0.387
444.0,0.390
445.0,0.394
446.0,0.397
447.0,0.401
448.0,0.404
449.0,0.408
450.0,0.412
451.0,0.416
452.0,0.420
453.0,0.424
454.0,0.429
455.0,0.433
456.0,0.438
457.0,0.442
458.0,0.446
459.0,0.451
460.0,0.455
461.0,0.460
462.0,0.464
463.0,0.469
464.0,0.474
465.0,0.478
466.0,0.483
467.0,0.488
468.0,0.492
469.0,0.496
470.0,0.501
471.0,0.506
472.0,0.510
473.0,0.514
474.0,0.519
475.0,0.523
476.0,0.528
477.0,0.532
478.0,0.536
479.0,0.541
480.0,0.545
481.0,0.550
482.0,0.554
483.0,0.558
484.0,0.563
485.0,0.567
486.0,0.571
487.0,0.574
488.0,0.578
489.0,0.582
490.0,0.586
491.0,0.589
492.0,0.593
493.0,0.597
494.0,0.600
495.0,0.604
496.0,0.607
497.0,0.610
498.0,0.614
499.0,0.618
500.0,0.621
501.0,0.625
502.0,0.628
503.0,0.631
504.0,0.634
505.0,0.637
506.0,0.641
507.0,0.644
508.0,0.647
509.0,0.651
510.0,0.653
511.0,0.657
512.0,0.660
513.0,0.663
514.0,0.666
515.0,0.670
516.0,0.673
517.0,0.676
518.0,0.679
519.0,0.682
520.0,0.686
521.0,0.689
522.0,0.693
523.0,0.696
524.0,0.700
525.0,0.704
526.0,0.707
527.0,0.711
528.0,0.714
529.0,0.717
530.0,0.721
531.0,0.726
532.0,0.729
533.0,0.733
534.0,0.736
535.0,0.740
536.0,0.744
537.0,0.748
538.0,0.751
539.0,0.755
540.0,0.759
541.0,0.762
542.0,0.765
543.0,0.769
544.0,0.773
545.0,0.777
546.0,0.781
547.0,0.785
548.0,0.788
549.0,0.792
550.0,0.795
551.0,0.799
552.0,0.802
553.0,0.805
554.0,0.809
555.0,0.812
556.0,0.816
557.0,0.820
558.0,0.823
559.0,0.827
560.0,0.830
561.0,0.833
562.0,0.836
563.0,0.840
564.0,0.844
565.0,0.847
566.0,0.851
567.0,0.854
568.0,0.857
569.0,0.861
570.0,0.865
571.0,0.869
572.0,0.873
573.0,0.876
574.0,0.879
575.0,0.883
576.0,0.887
577.0,0.891
578.0,0.894
579.0,0.897
580.0,0.901
581.0,0.905
582.0,0.909
583.0,0.912
584.0,0.916
585.0,0.920
586.0,0.923
587.0,0.927
588.0,0.930
589.0,0.934
590.0,0.939
591.0,0.943
592.0,0.947
593.0,0.951
594.0,0.954
595.0,0.958
596.0,0.962
597.0,0.966
598.0,0.970
599.0,0.974
600.0,0.978
601.0,0.982
602.0,0.986
603.0,0.990
604.0,0.993
605.0,0.997
606.0,1.001
607.0,1.005
608.0,1.009
609.0,1.013
610.0,1.017
611.0,1.021
612.0,1.024
613.0,1.028
614.0,1.032
615.0,1.037
616.0,1.041
617.0,1.045
618.0,1.048
619.0,1.053
620.0,1.057
621.0,1.060
622.0,1.064
623.0,1.068
624.0,1.072
625.0,1.076
626.0,1.079
627.0,1.083
628.0,1.087
629.0,1.091
630.0,1.095
631.0,1.099
632.0,1.103
633.0,1.107
634.0,1.111
635.0,1.115
636.0,1.118
637.0,1.122
638.0,1.126
639.0,1.130
640.0,1.134
641.0,1.138
642.0,1.141
643.0,1.145
644.0,1.148
645.0,1.152
646.0,1.155
647.0,1.160
648.0,1.164
649.0,1.167
650.0,1.169
651.0,1.173
652.0,1.177
653.0,1.181
654.0,1.185
655.0,1.188
656.0,1.193
657.0,1.197
658.0,1.200
659.0,1.204
660.0,1.207
661.0,1.210
662.0,1.214
663.0,1.217
664.0,1.221
665.0,1.225
666.0,1.229
667.0,1.232
668.0,1.236
669.0,1.239
670.0,1.243
671.0,1.246
672.0,1.249
673.0,1.253
674.0,1.256
675.0,1.260
676.0,1.263
677.0,1.267
678.0,1.271
679.0,1.274
680.0,1.278
681.0,1.280
682.0,1.283
683.0,1.286
684.0,1.290
685.0,1.293
686.0,1.296
687.0,1.298
688.0,1.302
689.0,1.305
690.0,1.309
691.0,1.312
692.0,1.315
693.0,1.318
694.0,1.320
695.0,1.323
696.0,1.326
697.0,1.328
698.0,1.330
699.0,1.333
700.0,1.336
701.0,1.340
702.0,1.343
703.0,1.345
704.0,1.346
705.0,1.348
706.0,1.351
707.0,1.353
708.0,1.355
709.0,1.357
710.0,1.359
711.0,1.361
712.0,1.361
713.0,1.364
714.0,1.366
715.0,1.367
716.0,1.368
717.0,1.369
718.0,1.371
719.0,1.372
720.0,1.373
721.0,1.375
722.0,1.376
723.0,1.378
724.0,1.380
725.0,1.380
726.0,1.381
727.0,1.384
728.0,1.386
729.0,1.386
730.0,1.384
731.0,1.385
732.0,1.386
733.0,1.388
734.0,1.389
735.0,1.391
736.0,1.392
737.0,1.393
738.0,1.392
739.0,1.392
740.0,1.391
741.0,1.393
742.0,1.396
743.0,1.397
744.0,1.397
745.0,1.398
746.0,1.399
747.0,1.400
748.0,1.400
749.0,1.401
750.0,1.403
751.0,1.405
752.0,1.407
753.0,1.407
754.0,1.410
755.0,1.412
756.0,1.414
757.0,1.415
758.0,1.416
759.0,1.417
760.0,1.419
761.0,1.421
762.0,1.423
763.0,1.425
764.0,1.426
765.0,1.427
766.0,1.430
767.0,1.433
768.0,1.437
769.0,1.439
770.0,1.441
771.0,1.442
772.0,1.446
773.0,1.449
774.0,1.451
775.0,1.455
776.0,1.460
777.0,1.464
778.0,1.467
779.0,1.470
780.0,1.473
781.0,1.477
782.0,1.480
783.0,1.483
784.0,1.488
785.0,1.494
786.0,1.498
787.0,1.500
788.0,1.503
789.0,1.510
790.0,1.513
791.0,1.517
792.0,1.522
793.0,1.528
794.0,1.531
795.0,1.535
796.0,1.539
797.0,1.545
798.0,1.551
799.0,1.556
800.0,1.560
801.0,1.564
802.0,1.570
803.0,1.577
804.0,1.582
805.0,1.587
806.0,1.592
807.0,1.597
808.0,1.607
809.0,1.614
810.0,1.619
811.0,1.624
812.0,1.627
813.0,1.637
814.0,1.645
815.0,1.651
816.0,1.654
817.0,1.657
818.0,1.666
819.0,1.671
820.0,1.678
821.0,1.682
822.0,1.690
823.0,1.692
824.0,1.697
825.0,1.699
826.0,1.705
827.0,1.709
828.0,1.713
829.0,1.715
830.0,1.725
831.0,1.735
832.0,1.740
833.0,1.735
834.0,1.731
835.0,1.737
836.0,1.745
837.0,1.755
838.0,1.754
839.0,1.754
840.0,1.744
841.0,1.751
842.0,1.763
843.0,1.774
844.0,1.783
845.0,1.787
846.0,1.802
847.0,1.806
848.0,1.812
849.0,1.804
850.0,1.808
851.0,1.802
852.0,1.802
853.0,1.807
854.0,1.819
855.0,1.833
856.0,1.842
857.0,1.850
858.0,1.851
859.0,1.853
860.0,1.862
861.0,1.866
862.0,1.862
863.0,1.850
864.0,1.847
865.0,1.837
866.0,1.824
867.0,1.839
868.0,1.844
869.0,1.867
870.0,1.850
871.0,1.845
872.0,1.829
873.0,1.822
874.0,1.829
875.0,1.827
876.0,1.831
877.0,1.816
878.0,1.804
879.0,1.792
880.0,1.781
881.0,1.785
882.0,1.778
883.0,1.776
884.0,1.770
885.0,1.761
886.0,1.753
887.0,1.735
888.0,1.722
889.0,1.714
890.0,1.698
891.0,1.691
892.0,1.675
893.0,1.669
894.0,1.655
895.0,1.644
896.0,1.630
897.0,1.624
898.0,1.615
899.0,1.607
900.0,1.591
901.0,1.576
902.0,1.560
903.0,1.550
904.0,1.542
905.0,1.533
906.0,1.520
907.0,1.508
908.0,1.498
909.0,1.487
910.0,1.477
911.0,1.466
912.0,1.456
913.0,1.442
914.0,1.429
915.0,1.416
916.0,1.405
917.0,1.395
918.0,1.384
919.0,1.372
920.0,1.363
921.0,1.352
922.0,1.344
923.0,1.331
924.0,1.321
925.0,1.309
926.0,1.301
927.0,1.290
928.0,1.280
929.0,1.270
930.0,1.261
931.0,1.253
932.0,1.243
933.0,1.232
934.0,1.222
935.0,1.214
936.0,1.203
937.0,1.193
938.0,1.183
939.0,1.173
940.0,1.163
941.0,1.155
942.0,1.146
943.0,1.136
944.0,1.127
945.0,1.119
946.0,1.110
947.0,1.101
948.0,1.090
949.0,1.081
950.0,1.073
951.0,1.065
952.0,1.057
953.0,1.047
954.0,1.039
955.0,1.031
956.0,1.023
957.0,1.014
958.0,1.006
959.0,0.998
960.0,0.990
961.0,0.982
962.0,0.975
963.0,0.967
964.0,0.960
965.0,0.952
966.0,0.945
967.0,0.939
968.0,0.932
969.0,0.924
970.0,0.917
971.0,0.911
972.0,0.905
973.0,0.899
974.0,0.892
975.0,0.885
976.0,0.879
977.0,0.872
978.0,0.865
979.0,0.859
980.0,0.853
981.0,0.847
982.0,0.841
983.0,0.835
984.0,0.829
985.0,0.823
986.0,0.817
987.0,0.812
988.0,0.807
989.0,0.802
990.0,0.796
991.0,0.791
992.0,0.786
993.0,0.781
994.0,0.776
995.0,0.771
996.0,0.766
997.0,0.761
998.0,0.756
999.0,0.751
1000.0,0.747
1001.0,0.742
1002.0,0.737
1003.0,0.733
1004.0,0.728
1005.0,0.724
1006.0,0.720
1007.0,0.716
1008.0,0.711
1009.0,0.708
1010.0,0.704
1011.0,0.700
1012.0,0.696
1013.0,0.692
1014.0,0.688
1015.0,0.684
1016.0,0.681
1017.0,0.677
1018.0,0.673
1019.0,0.670
1020.0,0.666
1021.0,0.662
1022.0,0.658
1023.0,0.655
1024.0,0.652
1025.0,0.649
1026.0,0.646
1027.0,0.643
1028.0,0.639
1029.0,0.636
1030.0,0.633
1031.0,0.630
1032.0,0.627
1033.0,0.623
1034.0,0.621
1035.0,0.617
1036.0,0.615
1037.0,0.612
1038.0,0.609
1039.0,0.607
1040.0,0.604
1041.0,0.601
1042.0,0.598
1043.0,0.595
1044.0,0.593
1045.0,0.590
1046.0,0.588
1047.0,0.585
1048.0,0.583
1049.0,0.580
1050.0,0.577
1051.0,0.575
1052.0,0.573
1053.0,0.570
1054.0,0.568
1055.0,0.566
1056.0,0.563
1057.0,0.561
1058.0,0.558
1059.0,0.556
1060.0,0.554
1061.0,0.552
1062.0,0.550
1063.0,0.548
1064.0,0.546
1065.0,0.544
1066.0,0.541
1067.0,0.540
1068.0,0.537
1069.0,0.535
1070.0,0.533
1071.0,0.531
1072.0,0.529
1073.0,0.527
1074.0,0.525
1075.0,0.523
1076.0,0.521
1077.0,0.519
1078.0,0.517
1079.0,0.516
1080.0,0.514
1081.0,0.512
1082.0,0.510
1083.0,0.508
1084.0,0.506
1085.0,0.504
1086.0,0.503
1087.0,0.501
1088.0,0.499
1089.0,0.497
1090.0,0.495
1091.0,0.494
1092.0,0.492
1093.0,0.490
1094.0,0.488
1095.0,0.487
1096.0,0.485
1097.0,0.484
1098.0,0.482
1099.0,0.480
1100.0,0.479
