Summary
[Data Information]
Data is:,Measurement Data
Dataset Name:,RawData
Sample Name:,MD_Pt_amostra_R2_10-20_26_09_2025_diluida_1_1
Sample ID
Option
Analyst
Date/Time:,09/26/2025 12:52:54 PM
Comments
Parameter File Name:,Esfera de Integração.vspm
Report File Name
[Software Information]
Software Name:,LabSolutions UV-Vis
Version:,1.11
[Instrument Information]
Instrument Name:,UV-2600i
Instrument Type:,UV-2600 Series
Model (S/N):,UV-2600i (A12595900700)

Parameter
[Measurement]
Start:,1100 nm
End:,400 nm
Data Interval:,1.0
Scan Speed:,High speed
Spectrum Type:,Absorbance
[Accessories]
Accessories:,None
[Advanced]
Slit Width:,5.0
Detector Unit:,External (2 Detector)
Light Source Switch Wavelength:,323
Detector Switch Wavelength:,830
S/R Switch:,Standard
Stair Correction:,ON
[Repeat]
Repeat Measurement:,OFF
[Post-processing]
Spectrum Transformation:,OFF
Data Processing Table:,OFF
Print:,OFF

Wavelength (nm),Absorbance
400.0,0.131
401.0,0.128
402.0,0.123
403.0,0.118
404.0,0.114
405.0,0.111
406.0,0.107
407.0,0.105
408.0,0.102
409.0,0.099
410.0,0.096
411.0,0.094
412.0,0.093
413.0,0.091
414.0,0.089
415.0,0.088
416.0,0.087
417.0,0.087
418.0,0.086
419.0,0.085
420.0,0.085
421.0,0.085
422.0,0.085
423.0,0.085
424.0,0.085
425.0,0.086
426.0,0.086
427.0,0.087
428.0,0.088
429.0,0.089
430.0,0.090
431.0,0.091
432.0,0.093
433.0,0.094
434.0,0.096
435.0,0.098
436.0,0.100
437.0,0.102
438.0,0.104
439.0,0.106
440.0,0.108
441.0,0.110
442.0,0.112
443.0,0.115
444.0,0.117
445.0,0.120
446.0,0.122
447.0,0.125
448.0,0.128
449.0,0.131
450.0,0.133
451.0,0.136
452.0,0.139
453.0,0.142
454.0,0.145
455.0,0.148
456.0,0.151
457.0,0.154
458.0,0.157
459.0,0.160
460.0,0.163
461.0,0.166
462.0,0.169
463.0,0.172
464.0,0.175
465.0,0.178
466.0,0.181
467.0,0.184
468.0,0.187
469.0,0.189
470.0,0.193
471.0,0.195
472.0,0.198
473.0,0.201
474.0,0.204
475.0,0.207
476.0,0.209
477.0,0.212
478.0,0.214
479.0,0.216
480.0,0.219
481.0,0.221
482.0,0.224
483.0,0.226
484.0,0.228
485.0,0.230
486.0,0.232
487.0,0.235
488.0,0.236
489.0,0.238
490.0,0.240
491.0,0.242
492.0,0.244
493.0,0.246
494.0,0.248
495.0,0.249
496.0,0.251
497.0,0.253
498.0,0.254
499.0,0.256
500.0,0.257
501.0,0.259
502.0,0.260
503.0,0.261
504.0,0.263
505.0,0.264
506.0,0.266
507.0,0.267
508.0,0.269
509.0,0.270
510.0,0.271
511.0,0.272
512.0,0.273
513.0,0.275
514.0,0.276
515.0,0.277
516.0,0.279
517.0,0.280
518.0,0.281
519.0,0.282
520.0,0.283
521.0,0.284
522.0,0.285
523.0,0.286
524.0,0.288
525.0,0.289
526.0,0.290
527.0,0.291
528.0,0.292
529.0,0.293
530.0,0.294
531.0,0.296
532.0,0.297
533.0,0.298
534.0,0.298
535.0,0.299
536.0,0.300
537.0,0.301
538.0,0.303
539.0,0.304
540.0,0.305
541.0,0.305
542.0,0.306
543.0,0.307
544.0,0.308
545.0,0.309
546.0,0.309
547.0,0.310
548.0,0.311
549.0,0.312
550.0,0.313
551.0,0.313
552.0,0.314
553.0,0.314
554.0,0.316
555.0,0.316
556.0,0.317
557.0,0.318
558.0,0.318
559.0,0.319
560.0,0.319
561.0,0.320
562.0,0.320
563.0,0.321
564.0,0.321
565.0,0.322
566.0,0.322
567.0,0.322
568.0,0.323
569.0,0.324
570.0,0.325
571.0,0.325
572.0,0.326
573.0,0.327
574.0,0.328
575.0,0.328
576.0,0.329
577.0,0.330
578.0,0.330
579.0,0.331
580.0,0.332
581.0,0.333
582.0,0.334
583.0,0.335
584.0,0.336
585.0,0.336
586.0,0.337
587.0,0.338
588.0,0.339
589.0,0.341
590.0,0.342
591.0,0.343
592.0,0.343
593.0,0.344
594.0,0.345
595.0,0.347
596.0,0.349
597.0,0.350
598.0,0.351
599.0,0.353
600.0,0.353
601.0,0.355
602.0,0.356
603.0,0.358
604.0,0.359
605.0,0.361
606.0,0.362
607.0,0.364
608.0,0.365
609.0,0.367
610.0,0.369
611.0,0.370
612.0,0.371
613.0,0.373
614.0,0.375
615.0,0.377
616.0,0.379
617.0,0.381
618.0,0.383
619.0,0.384
620.0,0.386
621.0,0.388
622.0,0.389
623.0,0.391
624.0,0.393
625.0,0.395
626.0,0.398
627.0,0.400
628.0,0.402
629.0,0.403
630.0,0.405
631.0,0.407
632.0,0.409
633.0,0.411
634.0,0.413
635.0,0.415
636.0,0.417
637.0,0.420
638.0,0.422
639.0,0.425
640.0,0.427
641.0,0.429
642.0,0.430
643.0,0.432
644.0,0.434
645.0,0.436
646.0,0.438
647.0,0.440
648.0,0.442
649.0,0.444
650.0,0.447
651.0,0.449
652.0,0.451
653.0,0.453
654.0,0.455
655.0,0.458
656.0,0.460
657.0,0.462
658.0,0.464
659.0,0.466
660.0,0.469
661.0,0.472
662.0,0.474
663.0,0.476
664.0,0.477
665.0,0.479
666.0,0.482
667.0,0.484
668.0,0.486
669.0,0.489
670.0,0.491
671.0,0.494
672.0,0.495
673.0,0.498
674.0,0.500
675.0,0.502
676.0,0.504
677.0,0.506
678.0,0.508
679.0,0.509
680.0,0.512
681.0,0.514
682.0,0.517
683.0,0.519
684.0,0.522
685.0,0.524
686.0,0.526
687.0,0.528
688.0,0.531
689.0,0.533
690.0,0.535
691.0,0.536
692.0,0.537
693.0,0.539
694.0,0.541
695.0,0.544
696.0,0.546
697.0,0.548
698.0,0.550
699.0,0.552
700.0,0.554
701.0,0.555
702.0,0.557
703.0,0.560
704.0,0.562
705.0,0.564
706.0,0.566
707.0,0.567
708.0,0.569
709.0,0.569
710.0,0.572
711.0,0.574
712.0,0.576
713.0,0.577
714.0,0.579
715.0,0.579
716.0,0.581
717.0,0.583
718.0,0.585
719.0,0.588
720.0,0.590
721.0,0.592
722.0,0.593
723.0,0.595
724.0,0.596
725.0,0.598
726.0,0.599
727.0,0.601
728.0,0.603
729.0,0.605
730.0,0.608
731.0,0.609
732.0,0.611
733.0,0.611
734.0,0.613
735.0,0.615
736.0,0.618
737.0,0.619
738.0,0.621
739.0,0.623
740.0,0.626
741.0,0.630
742.0,0.631
743.0,0.633
744.0,0.635
745.0,0.638
746.0,0.642
747.0,0.645
748.0,0.648
749.0,0.650
750.0,0.653
751.0,0.654
752.0,0.656
753.0,0.659
754.0,0.662
755.0,0.665
756.0,0.667
757.0,0.671
758.0,0.674
759.0,0.679
760.0,0.682
761.0,0.685
762.0,0.688
763.0,0.692
764.0,0.695
765.0,0.698
766.0,0.701
767.0,0.706
768.0,0.710
769.0,0.716
770.0,0.721
771.0,0.725
772.0,0.729
773.0,0.732
774.0,0.738
775.0,0.740
776.0,0.745
777.0,0.749
778.0,0.755
779.0,0.761
780.0,0.765
781.0,0.771
782.0,0.774
783.0,0.780
784.0,0.785
785.0,0.791
786.0,0.794
787.0,0.800
788.0,0.807
789.0,0.813
790.0,0.818
791.0,0.824
792.0,0.829
793.0,0.833
794.0,0.837
795.0,0.841
796.0,0.846
797.0,0.853
798.0,0.859
799.0,0.865
800.0,0.871
801.0,0.877
802.0,0.882
803.0,0.887
804.0,0.892
805.0,0.900
806.0,0.908
807.0,0.916
808.0,0.922
809.0,0.925
810.0,0.930
811.0,0.934
812.0,0.940
813.0,0.943
814.0,0.949
815.0,0.954
816.0,0.960
817.0,0.964
818.0,0.970
819.0,0.973
820.0,0.976
821.0,0.981
822.0,0.985
823.0,0.989
824.0,0.993
825.0,0.997
826.0,1.001
827.0,1.005
828.0,1.006
829.0,1.012
830.0,1.012
831.0,1.022
832.0,1.019
833.0,1.016
834.0,1.010
835.0,1.006
836.0,1.017
837.0,1.024
838.0,1.032
839.0,1.032
840.0,1.024
841.0,1.018
842.0,1.019
843.0,1.025
844.0,1.038
845.0,1.037
846.0,1.040
847.0,1.033
848.0,1.039
849.0,1.043
850.0,1.051
851.0,1.044
852.0,1.041
853.0,1.038
854.0,1.044
855.0,1.042
856.0,1.038
857.0,1.038
858.0,1.044
859.0,1.047
860.0,1.043
861.0,1.043
862.0,1.042
863.0,1.042
864.0,1.039
865.0,1.037
866.0,1.032
867.0,1.024
868.0,1.019
869.0,1.024
870.0,1.026
871.0,1.022
872.0,1.010
873.0,1.005
874.0,0.993
875.0,0.985
876.0,0.974
877.0,0.970
878.0,0.967
879.0,0.961
880.0,0.953
881.0,0.946
882.0,0.936
883.0,0.927
884.0,0.917
885.0,0.910
886.0,0.900
887.0,0.893
888.0,0.886
889.0,0.877
890.0,0.864
891.0,0.854
892.0,0.847
893.0,0.840
894.0,0.829
895.0,0.817
896.0,0.806
897.0,0.798
898.0,0.790
899.0,0.780
900.0,0.771
901.0,0.764
902.0,0.756
903.0,0.747
904.0,0.737
905.0,0.729
906.0,0.720
907.0,0.712
908.0,0.702
909.0,0.693
910.0,0.684
911.0,0.676
912.0,0.670
913.0,0.662
914.0,0.655
915.0,0.646
916.0,0.638
917.0,0.630
918.0,0.623
919.0,0.616
920.0,0.610
921.0,0.603
922.0,0.597
923.0,0.590
924.0,0.583
925.0,0.575
926.0,0.567
927.0,0.560
928.0,0.554
929.0,0.548
930.0,0.542
931.0,0.536
932.0,0.530
933.0,0.524
934.0,0.518
935.0,0.513
936.0,0.508
937.0,0.502
938.0,0.497
939.0,0.490
940.0,0.484
941.0,0.478
942.0,0.472
943.0,0.466
944.0,0.461
945.0,0.454
946.0,0.448
947.0,0.443
948.0,0.438
949.0,0.433
950.0,0.427
951.0,0.422
952.0,0.417
953.0,0.412
954.0,0.407
955.0,0.403
956.0,0.398
957.0,0.393
958.0,0.389
959.0,0.384
960.0,0.379
961.0,0.374
962.0,0.370
963.0,0.366
964.0,0.361
965.0,0.357
966.0,0.353
967.0,0.349
968.0,0.345
969.0,0.341
970.0,0.337
971.0,0.332
972.0,0.329
973.0,0.325
974.0,0.321
975.0,0.317
976.0,0.312
977.0,0.309
978.0,0.305
979.0,0.302
980.0,0.298
981.0,0.295
982.0,0.290
983.0,0.287
984.0,0.283
985.0,0.279
986.0,0.275
987.0,0.272
988.0,0.269
989.0,0.266
990.0,0.262
991.0,0.260
992.0,0.257
993.0,0.254
994.0,0.250
995.0,0.247
996.0,0.244
997.0,0.241
998.0,0.238
999.0,0.235
1000.0,0.232
1001.0,0.229
1002.0,0.227
1003.0,0.224
1004.0,0.222
1005.0,0.219
1006.0,0.216
1007.0,0.214
1008.0,0.211
1009.0,0.209
1010.0,0.207
1011.0,0.204
1012.0,0.202
1013.0,0.200
1014.0,0.198
1015.0,0.195
1016.0,0.193
1017.0,0.190
1018.0,0.188
1019.0,0.186
1020.0,0.184
1021.0,0.182
1022.0,0.180
1023.0,0.178
1024.0,0.176
1025.0,0.174
1026.0,0.173
1027.0,0.171
1028.0,0.169
1029.0,0.168
1030.0,0.166
1031.0,0.164
1032.0,0.162
1033.0,0.160
1034.0,0.159
1035.0,0.157
1036.0,0.156
1037.0,0.154
1038.0,0.152
1039.0,0.151
1040.0,0.149
1041.0,0.148
1042.0,0.146
1043.0,0.145
1044.0,0.144
1045.0,0.142
1046.0,0.141
1047.0,0.139
1048.0,0.138
1049.0,0.137
1050.0,0.135
1051.0,0.134
1052.0,0.132
1053.0,0.131
1054.0,0.130
1055.0,0.129
1056.0,0.127
1057.0,0.126
1058.0,0.125
1059.0,0.124
1060.0,0.123
1061.0,0.122
1062.0,0.121
1063.0,0.120
1064.0,0.118
1065.0,0.117
1066.0,0.116
1067.0,0.115
1068.0,0.114
1069.0,0.113
1070.0,0.112
1071.0,0.111
1072.0,0.110
1073.0,0.109
1074.0,0.108
1075.0,0.107
1076.0,0.106
1077.0,0.106
1078.0,0.104
1079.0,0.104
1080.0,0.102
1081.0,0.101
1082.0,0.100
1083.0,0.099
1084.0,0.099
1085.0,0.098
1086.0,0.097
1087.0,0.096
1088.0,0.095
1089.0,0.094
1090.0,0.093
1091.0,0.093
1092.0,0.092
1093.0,0.091
1094.0,0.090
1095.0,0.089
1096.0,0.089
1097.0,0.088
1098.0,0.087
1099.0,0.086
1100.0,0.086
