Summary
[Data Information]
Data is:,Measurement Data
Dataset Name:,RawData
Sample Name:,MD_P_amostra_R1_0-10_24_09_2025
Sample ID
Option
Analyst
Date/Time:,09/24/2025 12:35:14 PM
Comments
Parameter File Name:,Esfera de Integração.vspm
Report File Name
[Software Information]
Software Name:,LabSolutions UV-Vis
Version:,1.11
[Instrument Information]
Instrument Name:,UV-2600i
Instrument Type:,UV-2600 Series
Model (S/N):,UV-2600i (A12595900700)

Parameter
[Measurement]
Start:,1100 nm
End:,400 nm
Data Interval:,1.0
Scan Speed:,High speed
Spectrum Type:,Absorbance
[Accessories]
Accessories:,None
[Advanced]
Slit Width:,5.0
Detector Unit:,External (2 Detector)
Light Source Switch Wavelength:,323
Detector Switch Wavelength:,830
S/R Switch:,Standard
Stair Correction:,ON
[Repeat]
Repeat Measurement:,OFF
[Post-processing]
Spectrum Transformation:,OFF
Data Processing Table:,OFF
Print:,OFF

Wavelength (nm),Absorbance
400.0,1.140
401.0,1.134
402.0,1.123
403.0,1.114
404.0,1.105
405.0,1.096
406.0,1.087
407.0,1.077
408.0,1.068
409.0,1.060
410.0,1.052
411.0,1.043
412.0,1.036
413.0,1.028
414.0,1.020
415.0,1.013
416.0,1.005
417.0,0.999
418.0,0.991
419.0,0.984
420.0,0.977
421.0,0.971
422.0,0.965
423.0,0.958
424.0,0.952
425.0,0.945
426.0,0.939
427.0,0.933
428.0,0.927
429.0,0.921
430.0,0.915
431.0,0.909
432.0,0.903
433.0,0.898
434.0,0.892
435.0,0.886
436.0,0.882
437.0,0.877
438.0,0.873
439.0,0.868
440.0,0.864
441.0,0.859
442.0,0.856
443.0,0.852
444.0,0.848
445.0,0.844
446.0,0.840
447.0,0.837
448.0,0.834
449.0,0.831
450.0,0.828
451.0,0.825
452.0,0.822
453.0,0.820
454.0,0.817
455.0,0.814
456.0,0.812
457.0,0.810
458.0,0.808
459.0,0.806
460.0,0.804
461.0,0.802
462.0,0.801
463.0,0.798
464.0,0.796
465.0,0.795
466.0,0.793
467.0,0.791
468.0,0.789
469.0,0.787
470.0,0.785
471.0,0.783
472.0,0.782
473.0,0.779
474.0,0.777
475.0,0.775
476.0,0.773
477.0,0.772
478.0,0.770
479.0,0.768
480.0,0.765
481.0,0.763
482.0,0.761
483.0,0.759
484.0,0.756
485.0,0.753
486.0,0.751
487.0,0.749
488.0,0.747
489.0,0.745
490.0,0.743
491.0,0.741
492.0,0.738
493.0,0.735
494.0,0.733
495.0,0.730
496.0,0.728
497.0,0.726
498.0,0.724
499.0,0.721
500.0,0.718
501.0,0.716
502.0,0.713
503.0,0.711
504.0,0.708
505.0,0.706
506.0,0.703
507.0,0.701
508.0,0.699
509.0,0.697
510.0,0.695
511.0,0.693
512.0,0.691
513.0,0.689
514.0,0.687
515.0,0.685
516.0,0.684
517.0,0.683
518.0,0.681
519.0,0.680
520.0,0.678
521.0,0.676
522.0,0.675
523.0,0.674
524.0,0.673
525.0,0.671
526.0,0.670
527.0,0.669
528.0,0.669
529.0,0.668
530.0,0.668
531.0,0.667
532.0,0.666
533.0,0.665
534.0,0.664
535.0,0.664
536.0,0.663
537.0,0.663
538.0,0.663
539.0,0.663
540.0,0.662
541.0,0.662
542.0,0.661
543.0,0.661
544.0,0.660
545.0,0.660
546.0,0.659
547.0,0.659
548.0,0.658
549.0,0.657
550.0,0.656
551.0,0.656
552.0,0.655
553.0,0.654
554.0,0.653
555.0,0.652
556.0,0.652
557.0,0.651
558.0,0.650
559.0,0.649
560.0,0.648
561.0,0.647
562.0,0.646
563.0,0.645
564.0,0.644
565.0,0.643
566.0,0.642
567.0,0.641
568.0,0.639
569.0,0.638
570.0,0.637
571.0,0.636
572.0,0.635
573.0,0.635
574.0,0.633
575.0,0.633
576.0,0.631
577.0,0.630
578.0,0.629
579.0,0.629
580.0,0.628
581.0,0.627
582.0,0.626
583.0,0.625
584.0,0.625
585.0,0.624
586.0,0.623
587.0,0.622
588.0,0.621
589.0,0.620
590.0,0.620
591.0,0.619
592.0,0.618
593.0,0.617
594.0,0.617
595.0,0.616
596.0,0.616
597.0,0.615
598.0,0.614
599.0,0.614
600.0,0.613
601.0,0.612
602.0,0.611
603.0,0.612
604.0,0.611
605.0,0.611
606.0,0.610
607.0,0.609
608.0,0.608
609.0,0.607
610.0,0.607
611.0,0.607
612.0,0.607
613.0,0.606
614.0,0.606
615.0,0.605
616.0,0.605
617.0,0.604
618.0,0.604
619.0,0.603
620.0,0.603
621.0,0.603
622.0,0.602
623.0,0.602
624.0,0.602
625.0,0.602
626.0,0.602
627.0,0.602
628.0,0.602
629.0,0.601
630.0,0.602
631.0,0.602
632.0,0.602
633.0,0.602
634.0,0.602
635.0,0.602
636.0,0.602
637.0,0.602
638.0,0.603
639.0,0.603
640.0,0.604
641.0,0.604
642.0,0.604
643.0,0.604
644.0,0.605
645.0,0.606
646.0,0.606
647.0,0.607
648.0,0.607
649.0,0.608
650.0,0.608
651.0,0.609
652.0,0.611
653.0,0.611
654.0,0.613
655.0,0.613
656.0,0.615
657.0,0.615
658.0,0.616
659.0,0.617
660.0,0.618
661.0,0.620
662.0,0.621
663.0,0.623
664.0,0.624
665.0,0.625
666.0,0.626
667.0,0.627
668.0,0.627
669.0,0.628
670.0,0.629
671.0,0.631
672.0,0.633
673.0,0.634
674.0,0.636
675.0,0.637
676.0,0.638
677.0,0.639
678.0,0.641
679.0,0.642
680.0,0.643
681.0,0.644
682.0,0.645
683.0,0.647
684.0,0.648
685.0,0.649
686.0,0.650
687.0,0.651
688.0,0.652
689.0,0.653
690.0,0.653
691.0,0.654
692.0,0.654
693.0,0.655
694.0,0.655
695.0,0.656
696.0,0.656
697.0,0.656
698.0,0.656
699.0,0.656
700.0,0.657
701.0,0.656
702.0,0.656
703.0,0.656
704.0,0.655
705.0,0.655
706.0,0.655
707.0,0.654
708.0,0.653
709.0,0.652
710.0,0.651
711.0,0.650
712.0,0.648
713.0,0.646
714.0,0.645
715.0,0.645
716.0,0.644
717.0,0.642
718.0,0.640
719.0,0.638
720.0,0.636
721.0,0.635
722.0,0.633
723.0,0.631
724.0,0.628
725.0,0.626
726.0,0.623
727.0,0.621
728.0,0.619
729.0,0.616
730.0,0.614
731.0,0.611
732.0,0.609
733.0,0.607
734.0,0.606
735.0,0.603
736.0,0.601
737.0,0.598
738.0,0.596
739.0,0.593
740.0,0.590
741.0,0.587
742.0,0.585
743.0,0.582
744.0,0.580
745.0,0.577
746.0,0.575
747.0,0.573
748.0,0.572
749.0,0.569
750.0,0.566
751.0,0.563
752.0,0.561
753.0,0.560
754.0,0.558
755.0,0.557
756.0,0.555
757.0,0.553
758.0,0.551
759.0,0.549
760.0,0.548
761.0,0.547
762.0,0.545
763.0,0.543
764.0,0.542
765.0,0.541
766.0,0.540
767.0,0.538
768.0,0.537
769.0,0.537
770.0,0.537
771.0,0.537
772.0,0.536
773.0,0.535
774.0,0.534
775.0,0.534
776.0,0.533
777.0,0.533
778.0,0.533
779.0,0.533
780.0,0.533
781.0,0.533
782.0,0.533
783.0,0.535
784.0,0.535
785.0,0.535
786.0,0.534
787.0,0.535
788.0,0.536
789.0,0.537
790.0,0.538
791.0,0.539
792.0,0.540
793.0,0.542
794.0,0.543
795.0,0.545
796.0,0.546
797.0,0.549
798.0,0.551
799.0,0.552
800.0,0.554
801.0,0.555
802.0,0.557
803.0,0.558
804.0,0.561
805.0,0.564
806.0,0.567
807.0,0.569
808.0,0.571
809.0,0.573
810.0,0.576
811.0,0.578
812.0,0.580
813.0,0.583
814.0,0.586
815.0,0.589
816.0,0.592
817.0,0.594
818.0,0.598
819.0,0.601
820.0,0.604
821.0,0.607
822.0,0.610
823.0,0.614
824.0,0.616
825.0,0.620
826.0,0.624
827.0,0.626
828.0,0.630
829.0,0.633
830.0,0.638
831.0,0.642
832.0,0.644
833.0,0.646
834.0,0.649
835.0,0.653
836.0,0.657
837.0,0.660
838.0,0.663
839.0,0.666
840.0,0.669
841.0,0.672
842.0,0.675
843.0,0.679
844.0,0.683
845.0,0.686
846.0,0.691
847.0,0.694
848.0,0.697
849.0,0.699
850.0,0.703
851.0,0.706
852.0,0.708
853.0,0.711
854.0,0.715
855.0,0.718
856.0,0.721
857.0,0.723
858.0,0.727
859.0,0.728
860.0,0.730
861.0,0.732
862.0,0.735
863.0,0.738
864.0,0.742
865.0,0.743
866.0,0.744
867.0,0.745
868.0,0.747
869.0,0.750
870.0,0.752
871.0,0.754
872.0,0.756
873.0,0.757
874.0,0.759
875.0,0.760
876.0,0.761
877.0,0.762
878.0,0.763
879.0,0.764
880.0,0.763
881.0,0.764
882.0,0.764
883.0,0.764
884.0,0.765
885.0,0.764
886.0,0.764
887.0,0.763
888.0,0.764
889.0,0.763
890.0,0.762
891.0,0.759
892.0,0.759
893.0,0.757
894.0,0.756
895.0,0.755
896.0,0.753
897.0,0.751
898.0,0.749
899.0,0.747
900.0,0.743
901.0,0.739
902.0,0.736
903.0,0.734
904.0,0.730
905.0,0.726
906.0,0.721
907.0,0.717
908.0,0.713
909.0,0.709
910.0,0.705
911.0,0.700
912.0,0.694
913.0,0.689
914.0,0.684
915.0,0.678
916.0,0.673
917.0,0.667
918.0,0.661
919.0,0.655
920.0,0.649
921.0,0.644
922.0,0.638
923.0,0.631
924.0,0.624
925.0,0.616
926.0,0.609
927.0,0.602
928.0,0.595
929.0,0.588
930.0,0.581
931.0,0.574
932.0,0.567
933.0,0.560
934.0,0.554
935.0,0.546
936.0,0.539
937.0,0.531
938.0,0.524
939.0,0.516
940.0,0.509
941.0,0.501
942.0,0.494
943.0,0.487
944.0,0.479
945.0,0.471
946.0,0.464
947.0,0.457
948.0,0.450
949.0,0.443
950.0,0.436
951.0,0.429
952.0,0.423
953.0,0.416
954.0,0.410
955.0,0.403
956.0,0.397
957.0,0.390
958.0,0.384
959.0,0.378
960.0,0.372
961.0,0.366
962.0,0.360
963.0,0.354
964.0,0.348
965.0,0.343
966.0,0.337
967.0,0.332
968.0,0.327
969.0,0.322
970.0,0.317
971.0,0.312
972.0,0.308
973.0,0.303
974.0,0.298
975.0,0.294
976.0,0.289
977.0,0.284
978.0,0.280
979.0,0.275
980.0,0.271
981.0,0.267
982.0,0.263
983.0,0.259
984.0,0.256
985.0,0.252
986.0,0.248
987.0,0.244
988.0,0.240
989.0,0.237
990.0,0.234
991.0,0.231
992.0,0.227
993.0,0.224
994.0,0.221
995.0,0.218
996.0,0.215
997.0,0.212
998.0,0.209
999.0,0.206
1000.0,0.203
1001.0,0.201
1002.0,0.198
1003.0,0.195
1004.0,0.193
1005.0,0.190
1006.0,0.188
1007.0,0.186
1008.0,0.183
1009.0,0.181
1010.0,0.179
1011.0,0.176
1012.0,0.174
1013.0,0.172
1014.0,0.170
1015.0,0.168
1016.0,0.166
1017.0,0.164
1018.0,0.162
1019.0,0.160
1020.0,0.158
1021.0,0.156
1022.0,0.154
1023.0,0.152
1024.0,0.151
1025.0,0.149
1026.0,0.147
1027.0,0.145
1028.0,0.144
1029.0,0.142
1030.0,0.141
1031.0,0.139
1032.0,0.138
1033.0,0.137
1034.0,0.135
1035.0,0.133
1036.0,0.132
1037.0,0.131
1038.0,0.129
1039.0,0.128
1040.0,0.127
1041.0,0.126
1042.0,0.124
1043.0,0.123
1044.0,0.122
1045.0,0.121
1046.0,0.119
1047.0,0.118
1048.0,0.117
1049.0,0.116
1050.0,0.115
1051.0,0.114
1052.0,0.113
1053.0,0.112
1054.0,0.111
1055.0,0.110
1056.0,0.109
1057.0,0.108
1058.0,0.107
1059.0,0.106
1060.0,0.105
1061.0,0.104
1062.0,0.103
1063.0,0.102
1064.0,0.102
1065.0,0.101
1066.0,0.100
1067.0,0.099
1068.0,0.098
1069.0,0.098
1070.0,0.097
1071.0,0.096
1072.0,0.096
1073.0,0.095
1074.0,0.094
1075.0,0.093
1076.0,0.093
1077.0,0.092
1078.0,0.092
1079.0,0.091
1080.0,0.090
1081.0,0.090
1082.0,0.089
1083.0,0.089
1084.0,0.088
1085.0,0.087
1086.0,0.087
1087.0,0.087
1088.0,0.086
1089.0,0.085
1090.0,0.085
1091.0,0.084
1092.0,0.084
1093.0,0.084
1094.0,0.083
1095.0,0.083
1096.0,0.082
1097.0,0.081
1098.0,0.081
1099.0,0.081
1100.0,0.080
