Summary
[Data Information]
Data is:,Measurement Data
Dataset Name:,RawData
Sample Name:,MD_Pi_amostra_R1_0-10_26_09_2025
Sample ID
Option
Analyst
Date/Time:,09/26/2025 01:05:24 PM
Comments
Parameter File Name:,Esfera de Integração.vspm
Report File Name
[Software Information]
Software Name:,LabSolutions UV-Vis
Version:,1.11
[Instrument Information]
Instrument Name:,UV-2600i
Instrument Type:,UV-2600 Series
Model (S/N):,UV-2600i (A12595900700)

Parameter
[Measurement]
Start:,1100 nm
End:,400 nm
Data Interval:,1.0
Scan Speed:,High speed
Spectrum Type:,Absorbance
[Accessories]
Accessories:,None
[Advanced]
Slit Width:,5.0
Detector Unit:,External (2 Detector)
Light Source Switch Wavelength:,323
Detector Switch Wavelength:,830
S/R Switch:,Standard
Stair Correction:,ON
[Repeat]
Repeat Measurement:,OFF
[Post-processing]
Spectrum Transformation:,OFF
Data Processing Table:,OFF
Print:,OFF

Wavelength (nm),Absorbance
400.0,0.274
401.0,0.270
402.0,0.266
403.0,0.261
404.0,0.257
405.0,0.253
406.0,0.249
407.0,0.244
408.0,0.240
409.0,0.236
410.0,0.232
411.0,0.227
412.0,0.223
413.0,0.219
414.0,0.215
415.0,0.211
416.0,0.208
417.0,0.204
418.0,0.200
419.0,0.197
420.0,0.193
421.0,0.189
422.0,0.186
423.0,0.183
424.0,0.179
425.0,0.176
426.0,0.172
427.0,0.169
428.0,0.166
429.0,0.163
430.0,0.160
431.0,0.157
432.0,0.154
433.0,0.151
434.0,0.148
435.0,0.145
436.0,0.143
437.0,0.140
438.0,0.137
439.0,0.135
440.0,0.133
441.0,0.130
442.0,0.128
443.0,0.125
444.0,0.123
445.0,0.121
446.0,0.119
447.0,0.117
448.0,0.115
449.0,0.113
450.0,0.111
451.0,0.109
452.0,0.107
453.0,0.105
454.0,0.103
455.0,0.102
456.0,0.100
457.0,0.098
458.0,0.096
459.0,0.094
460.0,0.093
461.0,0.091
462.0,0.090
463.0,0.088
464.0,0.087
465.0,0.085
466.0,0.084
467.0,0.082
468.0,0.080
469.0,0.079
470.0,0.078
471.0,0.076
472.0,0.074
473.0,0.073
474.0,0.071
475.0,0.070
476.0,0.068
477.0,0.067
478.0,0.065
479.0,0.063
480.0,0.062
481.0,0.060
482.0,0.058
483.0,0.056
484.0,0.055
485.0,0.053
486.0,0.051
487.0,0.050
488.0,0.048
489.0,0.046
490.0,0.044
491.0,0.043
492.0,0.041
493.0,0.039
494.0,0.037
495.0,0.035
496.0,0.033
497.0,0.031
498.0,0.029
499.0,0.027
500.0,0.025
501.0,0.024
502.0,0.021
503.0,0.020
504.0,0.017
505.0,0.016
506.0,0.014
507.0,0.012
508.0,0.009
509.0,0.007
510.0,0.005
511.0,0.003
512.0,0.002
513.0,-0.001
514.0,-0.002
515.0,-0.004
516.0,-0.006
517.0,-0.008
518.0,-0.010
519.0,-0.012
520.0,-0.014
521.0,-0.016
522.0,-0.018
523.0,-0.019
524.0,-0.021
525.0,-0.023
526.0,-0.025
527.0,-0.026
528.0,-0.028
529.0,-0.030
530.0,-0.032
531.0,-0.034
532.0,-0.036
533.0,-0.038
534.0,-0.039
535.0,-0.041
536.0,-0.043
537.0,-0.045
538.0,-0.046
539.0,-0.048
540.0,-0.050
541.0,-0.052
542.0,-0.054
543.0,-0.056
544.0,-0.058
545.0,-0.060
546.0,-0.062
547.0,-0.064
548.0,-0.066
549.0,-0.068
550.0,-0.070
551.0,-0.072
552.0,-0.074
553.0,-0.076
554.0,-0.078
555.0,-0.080
556.0,-0.083
557.0,-0.085
558.0,-0.087
559.0,-0.089
560.0,-0.092
561.0,-0.094
562.0,-0.096
563.0,-0.098
564.0,-0.100
565.0,-0.103
566.0,-0.106
567.0,-0.109
568.0,-0.111
569.0,-0.114
570.0,-0.116
571.0,-0.119
572.0,-0.121
573.0,-0.124
574.0,-0.126
575.0,-0.129
576.0,-0.131
577.0,-0.133
578.0,-0.135
579.0,-0.137
580.0,-0.140
581.0,-0.142
582.0,-0.144
583.0,-0.147
584.0,-0.149
585.0,-0.151
586.0,-0.153
587.0,-0.156
588.0,-0.158
589.0,-0.160
590.0,-0.163
591.0,-0.165
592.0,-0.167
593.0,-0.169
594.0,-0.171
595.0,-0.173
596.0,-0.176
597.0,-0.178
598.0,-0.179
599.0,-0.181
600.0,-0.183
601.0,-0.186
602.0,-0.188
603.0,-0.190
604.0,-0.191
605.0,-0.193
606.0,-0.195
607.0,-0.198
608.0,-0.200
609.0,-0.202
610.0,-0.203
611.0,-0.205
612.0,-0.207
613.0,-0.209
614.0,-0.210
615.0,-0.212
616.0,-0.214
617.0,-0.216
618.0,-0.217
619.0,-0.219
620.0,-0.221
621.0,-0.222
622.0,-0.224
623.0,-0.226
624.0,-0.227
625.0,-0.228
626.0,-0.230
627.0,-0.231
628.0,-0.233
629.0,-0.234
630.0,-0.235
631.0,-0.237
632.0,-0.238
633.0,-0.240
634.0,-0.241
635.0,-0.242
636.0,-0.243
637.0,-0.244
638.0,-0.245
639.0,-0.246
640.0,-0.247
641.0,-0.248
642.0,-0.249
643.0,-0.250
644.0,-0.251
645.0,-0.253
646.0,-0.254
647.0,-0.254
648.0,-0.255
649.0,-0.256
650.0,-0.256
651.0,-0.257
652.0,-0.258
653.0,-0.259
654.0,-0.260
655.0,-0.260
656.0,-0.261
657.0,-0.262
658.0,-0.262
659.0,-0.263
660.0,-0.263
661.0,-0.264
662.0,-0.264
663.0,-0.265
664.0,-0.265
665.0,-0.266
666.0,-0.266
667.0,-0.266
668.0,-0.266
669.0,-0.267
670.0,-0.267
671.0,-0.268
672.0,-0.268
673.0,-0.269
674.0,-0.269
675.0,-0.269
676.0,-0.269
677.0,-0.269
678.0,-0.270
679.0,-0.271
680.0,-0.271
681.0,-0.272
682.0,-0.272
683.0,-0.272
684.0,-0.272
685.0,-0.272
686.0,-0.273
687.0,-0.273
688.0,-0.273
689.0,-0.273
690.0,-0.274
691.0,-0.275
692.0,-0.275
693.0,-0.276
694.0,-0.276
695.0,-0.276
696.0,-0.277
697.0,-0.277
698.0,-0.278
699.0,-0.279
700.0,-0.279
701.0,-0.280
702.0,-0.281
703.0,-0.282
704.0,-0.282
705.0,-0.283
706.0,-0.284
707.0,-0.285
708.0,-0.287
709.0,-0.288
710.0,-0.289
711.0,-0.290
712.0,-0.291
713.0,-0.292
714.0,-0.292
715.0,-0.294
716.0,-0.294
717.0,-0.296
718.0,-0.298
719.0,-0.299
720.0,-0.300
721.0,-0.302
722.0,-0.303
723.0,-0.305
724.0,-0.306
725.0,-0.308
726.0,-0.309
727.0,-0.311
728.0,-0.312
729.0,-0.313
730.0,-0.315
731.0,-0.316
732.0,-0.319
733.0,-0.320
734.0,-0.321
735.0,-0.322
736.0,-0.324
737.0,-0.325
738.0,-0.327
739.0,-0.329
740.0,-0.331
741.0,-0.332
742.0,-0.334
743.0,-0.336
744.0,-0.338
745.0,-0.339
746.0,-0.341
747.0,-0.342
748.0,-0.344
749.0,-0.345
750.0,-0.347
751.0,-0.348
752.0,-0.349
753.0,-0.351
754.0,-0.353
755.0,-0.354
756.0,-0.355
757.0,-0.356
758.0,-0.357
759.0,-0.358
760.0,-0.360
761.0,-0.361
762.0,-0.362
763.0,-0.362
764.0,-0.364
765.0,-0.365
766.0,-0.367
767.0,-0.367
768.0,-0.367
769.0,-0.368
770.0,-0.369
771.0,-0.370
772.0,-0.370
773.0,-0.371
774.0,-0.371
775.0,-0.372
776.0,-0.373
777.0,-0.373
778.0,-0.373
779.0,-0.373
780.0,-0.372
781.0,-0.372
782.0,-0.372
783.0,-0.373
784.0,-0.374
785.0,-0.373
786.0,-0.373
787.0,-0.373
788.0,-0.372
789.0,-0.371
790.0,-0.370
791.0,-0.370
792.0,-0.369
793.0,-0.369
794.0,-0.368
795.0,-0.367
796.0,-0.366
797.0,-0.366
798.0,-0.365
799.0,-0.364
800.0,-0.362
801.0,-0.362
802.0,-0.360
803.0,-0.360
804.0,-0.357
805.0,-0.356
806.0,-0.354
807.0,-0.352
808.0,-0.350
809.0,-0.348
810.0,-0.346
811.0,-0.345
812.0,-0.343
813.0,-0.341
814.0,-0.338
815.0,-0.335
816.0,-0.332
817.0,-0.331
818.0,-0.330
819.0,-0.328
820.0,-0.325
821.0,-0.323
822.0,-0.320
823.0,-0.316
824.0,-0.312
825.0,-0.310
826.0,-0.308
827.0,-0.306
828.0,-0.303
829.0,-0.300
830.0,-0.297
831.0,-0.294
832.0,-0.291
833.0,-0.287
834.0,-0.283
835.0,-0.281
836.0,-0.278
837.0,-0.275
838.0,-0.270
839.0,-0.267
840.0,-0.263
841.0,-0.261
842.0,-0.258
843.0,-0.256
844.0,-0.251
845.0,-0.248
846.0,-0.243
847.0,-0.240
848.0,-0.237
849.0,-0.234
850.0,-0.230
851.0,-0.227
852.0,-0.224
853.0,-0.221
854.0,-0.216
855.0,-0.214
856.0,-0.211
857.0,-0.208
858.0,-0.206
859.0,-0.203
860.0,-0.200
861.0,-0.196
862.0,-0.193
863.0,-0.190
864.0,-0.186
865.0,-0.183
866.0,-0.179
867.0,-0.176
868.0,-0.173
869.0,-0.170
870.0,-0.167
871.0,-0.164
872.0,-0.162
873.0,-0.159
874.0,-0.157
875.0,-0.153
876.0,-0.151
877.0,-0.149
878.0,-0.147
879.0,-0.144
880.0,-0.141
881.0,-0.139
882.0,-0.136
883.0,-0.134
884.0,-0.133
885.0,-0.131
886.0,-0.129
887.0,-0.127
888.0,-0.125
889.0,-0.124
890.0,-0.122
891.0,-0.121
892.0,-0.120
893.0,-0.118
894.0,-0.117
895.0,-0.116
896.0,-0.115
897.0,-0.114
898.0,-0.113
899.0,-0.113
900.0,-0.112
901.0,-0.113
902.0,-0.113
903.0,-0.113
904.0,-0.113
905.0,-0.112
906.0,-0.113
907.0,-0.113
908.0,-0.113
909.0,-0.114
910.0,-0.114
911.0,-0.115
912.0,-0.116
913.0,-0.117
914.0,-0.118
915.0,-0.119
916.0,-0.121
917.0,-0.123
918.0,-0.124
919.0,-0.125
920.0,-0.126
921.0,-0.128
922.0,-0.130
923.0,-0.131
924.0,-0.133
925.0,-0.135
926.0,-0.137
927.0,-0.139
928.0,-0.141
929.0,-0.143
930.0,-0.145
931.0,-0.148
932.0,-0.150
933.0,-0.152
934.0,-0.154
935.0,-0.157
936.0,-0.158
937.0,-0.161
938.0,-0.163
939.0,-0.166
940.0,-0.168
941.0,-0.171
942.0,-0.174
943.0,-0.176
944.0,-0.178
945.0,-0.180
946.0,-0.183
947.0,-0.185
948.0,-0.187
949.0,-0.190
950.0,-0.192
951.0,-0.195
952.0,-0.197
953.0,-0.199
954.0,-0.201
955.0,-0.203
956.0,-0.205
957.0,-0.207
958.0,-0.209
959.0,-0.211
960.0,-0.212
961.0,-0.214
962.0,-0.216
963.0,-0.218
964.0,-0.219
965.0,-0.220
966.0,-0.222
967.0,-0.224
968.0,-0.225
969.0,-0.226
970.0,-0.227
971.0,-0.229
972.0,-0.230
973.0,-0.232
974.0,-0.233
975.0,-0.235
976.0,-0.236
977.0,-0.237
978.0,-0.238
979.0,-0.238
980.0,-0.239
981.0,-0.241
982.0,-0.242
983.0,-0.243
984.0,-0.244
985.0,-0.245
986.0,-0.246
987.0,-0.247
988.0,-0.247
989.0,-0.248
990.0,-0.249
991.0,-0.249
992.0,-0.250
993.0,-0.250
994.0,-0.251
995.0,-0.251
996.0,-0.252
997.0,-0.252
998.0,-0.253
999.0,-0.253
1000.0,-0.254
1001.0,-0.254
1002.0,-0.255
1003.0,-0.255
1004.0,-0.255
1005.0,-0.255
1006.0,-0.256
1007.0,-0.256
1008.0,-0.256
1009.0,-0.256
1010.0,-0.257
1011.0,-0.257
1012.0,-0.257
1013.0,-0.257
1014.0,-0.257
1015.0,-0.257
1016.0,-0.257
1017.0,-0.257
1018.0,-0.257
1019.0,-0.257
1020.0,-0.257
1021.0,-0.258
1022.0,-0.257
1023.0,-0.258
1024.0,-0.257
1025.0,-0.257
1026.0,-0.257
1027.0,-0.257
1028.0,-0.257
1029.0,-0.257
1030.0,-0.257
1031.0,-0.257
1032.0,-0.256
1033.0,-0.256
1034.0,-0.256
1035.0,-0.256
1036.0,-0.255
1037.0,-0.255
1038.0,-0.255
1039.0,-0.255
1040.0,-0.255
1041.0,-0.255
1042.0,-0.254
1043.0,-0.254
1044.0,-0.254
1045.0,-0.254
1046.0,-0.253
1047.0,-0.253
1048.0,-0.253
1049.0,-0.253
1050.0,-0.253
1051.0,-0.252
1052.0,-0.252
1053.0,-0.252
1054.0,-0.251
1055.0,-0.251
1056.0,-0.250
1057.0,-0.250
1058.0,-0.250
1059.0,-0.250
1060.0,-0.249
1061.0,-0.249
1062.0,-0.248
1063.0,-0.248
1064.0,-0.247
1065.0,-0.247
1066.0,-0.247
1067.0,-0.246
1068.0,-0.246
1069.0,-0.246
1070.0,-0.245
1071.0,-0.245
1072.0,-0.245
1073.0,-0.244
1074.0,-0.244
1075.0,-0.243
1076.0,-0.243
1077.0,-0.242
1078.0,-0.242
1079.0,-0.241
1080.0,-0.241
1081.0,-0.241
1082.0,-0.240
1083.0,-0.240
1084.0,-0.239
1085.0,-0.239
1086.0,-0.238
1087.0,-0.238
1088.0,-0.238
1089.0,-0.237
1090.0,-0.237
1091.0,-0.236
1092.0,-0.236
1093.0,-0.235
1094.0,-0.235
1095.0,-0.234
1096.0,-0.234
1097.0,-0.233
1098.0,-0.233
1099.0,-0.232
1100.0,-0.232
