Summary
[Data Information]
Data is:,Measurement Data
Dataset Name:,RawData
Sample Name:,MD_Pi_amostra_R1_1-20_26_09_2025
Sample ID
Option
Analyst
Date/Time:,09/26/2025 01:09:54 PM
Comments
Parameter File Name:,Esfera de Integração.vspm
Report File Name
[Software Information]
Software Name:,LabSolutions UV-Vis
Version:,1.11
[Instrument Information]
Instrument Name:,UV-2600i
Instrument Type:,UV-2600 Series
Model (S/N):,UV-2600i (A12595900700)

Parameter
[Measurement]
Start:,1100 nm
End:,400 nm
Data Interval:,1.0
Scan Speed:,High speed
Spectrum Type:,Absorbance
[Accessories]
Accessories:,None
[Advanced]
Slit Width:,5.0
Detector Unit:,External (2 Detector)
Light Source Switch Wavelength:,323
Detector Switch Wavelength:,830
S/R Switch:,Standard
Stair Correction:,ON
[Repeat]
Repeat Measurement:,OFF
[Post-processing]
Spectrum Transformation:,OFF
Data Processing Table:,OFF
Print:,OFF

Wavelength (nm),Absorbance
400.0,0.162
401.0,0.160
402.0,0.157
403.0,0.155
404.0,0.152
405.0,0.150
406.0,0.147
407.0,0.145
408.0,0.142
409.0,0.140
410.0,0.138
411.0,0.136
412.0,0.134
413.0,0.132
414.0,0.130
415.0,0.127
416.0,0.125
417.0,0.124
418.0,0.121
419.0,0.120
420.0,0.117
421.0,0.116
422.0,0.114
423.0,0.112
424.0,0.111
425.0,0.109
426.0,0.107
427.0,0.106
428.0,0.104
429.0,0.103
430.0,0.101
431.0,0.100
432.0,0.098
433.0,0.097
434.0,0.096
435.0,0.095
436.0,0.094
437.0,0.093
438.0,0.092
439.0,0.091
440.0,0.090
441.0,0.089
442.0,0.088
443.0,0.087
444.0,0.086
445.0,0.086
446.0,0.085
447.0,0.084
448.0,0.084
449.0,0.083
450.0,0.083
451.0,0.082
452.0,0.082
453.0,0.081
454.0,0.081
455.0,0.080
456.0,0.080
457.0,0.080
458.0,0.079
459.0,0.079
460.0,0.079
461.0,0.078
462.0,0.078
463.0,0.077
464.0,0.077
465.0,0.077
466.0,0.077
467.0,0.077
468.0,0.077
469.0,0.076
470.0,0.076
471.0,0.076
472.0,0.075
473.0,0.075
474.0,0.075
475.0,0.074
476.0,0.074
477.0,0.074
478.0,0.073
479.0,0.073
480.0,0.073
481.0,0.072
482.0,0.071
483.0,0.071
484.0,0.070
485.0,0.070
486.0,0.069
487.0,0.069
488.0,0.068
489.0,0.067
490.0,0.066
491.0,0.065
492.0,0.065
493.0,0.063
494.0,0.063
495.0,0.061
496.0,0.060
497.0,0.059
498.0,0.058
499.0,0.058
500.0,0.056
501.0,0.055
502.0,0.054
503.0,0.052
504.0,0.051
505.0,0.050
506.0,0.049
507.0,0.048
508.0,0.046
509.0,0.045
510.0,0.044
511.0,0.043
512.0,0.042
513.0,0.040
514.0,0.040
515.0,0.039
516.0,0.037
517.0,0.036
518.0,0.035
519.0,0.034
520.0,0.033
521.0,0.032
522.0,0.031
523.0,0.030
524.0,0.029
525.0,0.028
526.0,0.028
527.0,0.027
528.0,0.026
529.0,0.025
530.0,0.024
531.0,0.023
532.0,0.023
533.0,0.022
534.0,0.021
535.0,0.021
536.0,0.020
537.0,0.019
538.0,0.018
539.0,0.017
540.0,0.016
541.0,0.015
542.0,0.014
543.0,0.013
544.0,0.012
545.0,0.011
546.0,0.010
547.0,0.008
548.0,0.007
549.0,0.006
550.0,0.005
551.0,0.003
552.0,0.002
553.0,0.000
554.0,-0.001
555.0,-0.003
556.0,-0.004
557.0,-0.006
558.0,-0.008
559.0,-0.009
560.0,-0.011
561.0,-0.013
562.0,-0.014
563.0,-0.016
564.0,-0.018
565.0,-0.020
566.0,-0.022
567.0,-0.024
568.0,-0.026
569.0,-0.028
570.0,-0.029
571.0,-0.031
572.0,-0.033
573.0,-0.035
574.0,-0.037
575.0,-0.039
576.0,-0.041
577.0,-0.043
578.0,-0.045
579.0,-0.046
580.0,-0.048
581.0,-0.050
582.0,-0.052
583.0,-0.054
584.0,-0.055
585.0,-0.057
586.0,-0.059
587.0,-0.061
588.0,-0.062
589.0,-0.064
590.0,-0.066
591.0,-0.068
592.0,-0.069
593.0,-0.070
594.0,-0.072
595.0,-0.074
596.0,-0.076
597.0,-0.078
598.0,-0.079
599.0,-0.080
600.0,-0.082
601.0,-0.084
602.0,-0.085
603.0,-0.087
604.0,-0.089
605.0,-0.090
606.0,-0.091
607.0,-0.093
608.0,-0.095
609.0,-0.096
610.0,-0.098
611.0,-0.100
612.0,-0.101
613.0,-0.102
614.0,-0.103
615.0,-0.104
616.0,-0.106
617.0,-0.108
618.0,-0.109
619.0,-0.110
620.0,-0.111
621.0,-0.113
622.0,-0.114
623.0,-0.115
624.0,-0.116
625.0,-0.117
626.0,-0.118
627.0,-0.119
628.0,-0.120
629.0,-0.121
630.0,-0.122
631.0,-0.123
632.0,-0.124
633.0,-0.124
634.0,-0.126
635.0,-0.126
636.0,-0.127
637.0,-0.128
638.0,-0.128
639.0,-0.129
640.0,-0.130
641.0,-0.131
642.0,-0.131
643.0,-0.132
644.0,-0.132
645.0,-0.134
646.0,-0.134
647.0,-0.134
648.0,-0.134
649.0,-0.135
650.0,-0.136
651.0,-0.136
652.0,-0.136
653.0,-0.137
654.0,-0.137
655.0,-0.137
656.0,-0.138
657.0,-0.138
658.0,-0.138
659.0,-0.139
660.0,-0.139
661.0,-0.139
662.0,-0.139
663.0,-0.139
664.0,-0.139
665.0,-0.139
666.0,-0.139
667.0,-0.139
668.0,-0.139
669.0,-0.139
670.0,-0.139
671.0,-0.139
672.0,-0.139
673.0,-0.139
674.0,-0.139
675.0,-0.139
676.0,-0.138
677.0,-0.138
678.0,-0.138
679.0,-0.139
680.0,-0.138
681.0,-0.138
682.0,-0.138
683.0,-0.137
684.0,-0.137
685.0,-0.137
686.0,-0.138
687.0,-0.137
688.0,-0.137
689.0,-0.136
690.0,-0.136
691.0,-0.137
692.0,-0.137
693.0,-0.137
694.0,-0.137
695.0,-0.137
696.0,-0.137
697.0,-0.138
698.0,-0.138
699.0,-0.138
700.0,-0.139
701.0,-0.140
702.0,-0.141
703.0,-0.141
704.0,-0.141
705.0,-0.141
706.0,-0.142
707.0,-0.143
708.0,-0.145
709.0,-0.146
710.0,-0.146
711.0,-0.147
712.0,-0.148
713.0,-0.149
714.0,-0.149
715.0,-0.151
716.0,-0.151
717.0,-0.154
718.0,-0.155
719.0,-0.157
720.0,-0.157
721.0,-0.159
722.0,-0.160
723.0,-0.162
724.0,-0.163
725.0,-0.165
726.0,-0.167
727.0,-0.169
728.0,-0.171
729.0,-0.173
730.0,-0.174
731.0,-0.176
732.0,-0.178
733.0,-0.180
734.0,-0.183
735.0,-0.184
736.0,-0.185
737.0,-0.188
738.0,-0.191
739.0,-0.194
740.0,-0.195
741.0,-0.196
742.0,-0.198
743.0,-0.200
744.0,-0.202
745.0,-0.204
746.0,-0.206
747.0,-0.207
748.0,-0.209
749.0,-0.212
750.0,-0.215
751.0,-0.217
752.0,-0.218
753.0,-0.219
754.0,-0.221
755.0,-0.223
756.0,-0.225
757.0,-0.226
758.0,-0.228
759.0,-0.229
760.0,-0.231
761.0,-0.233
762.0,-0.234
763.0,-0.236
764.0,-0.238
765.0,-0.240
766.0,-0.241
767.0,-0.241
768.0,-0.241
769.0,-0.242
770.0,-0.243
771.0,-0.244
772.0,-0.244
773.0,-0.245
774.0,-0.246
775.0,-0.247
776.0,-0.247
777.0,-0.248
778.0,-0.248
779.0,-0.248
780.0,-0.248
781.0,-0.247
782.0,-0.248
783.0,-0.248
784.0,-0.248
785.0,-0.248
786.0,-0.248
787.0,-0.247
788.0,-0.247
789.0,-0.246
790.0,-0.244
791.0,-0.244
792.0,-0.243
793.0,-0.243
794.0,-0.241
795.0,-0.239
796.0,-0.238
797.0,-0.237
798.0,-0.236
799.0,-0.234
800.0,-0.232
801.0,-0.231
802.0,-0.229
803.0,-0.228
804.0,-0.225
805.0,-0.222
806.0,-0.219
807.0,-0.218
808.0,-0.215
809.0,-0.212
810.0,-0.209
811.0,-0.207
812.0,-0.205
813.0,-0.202
814.0,-0.199
815.0,-0.195
816.0,-0.192
817.0,-0.190
818.0,-0.187
819.0,-0.184
820.0,-0.180
821.0,-0.177
822.0,-0.173
823.0,-0.168
824.0,-0.164
825.0,-0.161
826.0,-0.158
827.0,-0.154
828.0,-0.150
829.0,-0.146
830.0,-0.142
831.0,-0.138
832.0,-0.133
833.0,-0.128
834.0,-0.123
835.0,-0.120
836.0,-0.116
837.0,-0.112
838.0,-0.107
839.0,-0.101
840.0,-0.097
841.0,-0.094
842.0,-0.090
843.0,-0.085
844.0,-0.080
845.0,-0.076
846.0,-0.071
847.0,-0.066
848.0,-0.063
849.0,-0.057
850.0,-0.052
851.0,-0.047
852.0,-0.042
853.0,-0.039
854.0,-0.034
855.0,-0.030
856.0,-0.025
857.0,-0.022
858.0,-0.018
859.0,-0.014
860.0,-0.009
861.0,-0.003
862.0,-0.000
863.0,0.004
864.0,0.007
865.0,0.012
866.0,0.017
867.0,0.021
868.0,0.025
869.0,0.029
870.0,0.033
871.0,0.037
872.0,0.040
873.0,0.044
874.0,0.047
875.0,0.051
876.0,0.055
877.0,0.058
878.0,0.060
879.0,0.063
880.0,0.066
881.0,0.069
882.0,0.071
883.0,0.073
884.0,0.075
885.0,0.078
886.0,0.080
887.0,0.082
888.0,0.084
889.0,0.085
890.0,0.087
891.0,0.087
892.0,0.089
893.0,0.091
894.0,0.093
895.0,0.093
896.0,0.093
897.0,0.093
898.0,0.093
899.0,0.093
900.0,0.092
901.0,0.092
902.0,0.091
903.0,0.091
904.0,0.090
905.0,0.089
906.0,0.088
907.0,0.086
908.0,0.085
909.0,0.083
910.0,0.082
911.0,0.080
912.0,0.078
913.0,0.075
914.0,0.072
915.0,0.070
916.0,0.067
917.0,0.064
918.0,0.061
919.0,0.058
920.0,0.055
921.0,0.052
922.0,0.048
923.0,0.045
924.0,0.041
925.0,0.037
926.0,0.033
927.0,0.029
928.0,0.025
929.0,0.020
930.0,0.017
931.0,0.012
932.0,0.008
933.0,0.003
934.0,-0.001
935.0,-0.005
936.0,-0.009
937.0,-0.013
938.0,-0.018
939.0,-0.023
940.0,-0.028
941.0,-0.032
942.0,-0.037
943.0,-0.041
944.0,-0.046
945.0,-0.051
946.0,-0.055
947.0,-0.059
948.0,-0.064
949.0,-0.068
950.0,-0.073
951.0,-0.076
952.0,-0.081
953.0,-0.084
954.0,-0.088
955.0,-0.092
956.0,-0.096
957.0,-0.100
958.0,-0.104
959.0,-0.108
960.0,-0.111
961.0,-0.115
962.0,-0.118
963.0,-0.122
964.0,-0.126
965.0,-0.128
966.0,-0.132
967.0,-0.135
968.0,-0.137
969.0,-0.140
970.0,-0.143
971.0,-0.146
972.0,-0.148
973.0,-0.151
974.0,-0.154
975.0,-0.156
976.0,-0.159
977.0,-0.161
978.0,-0.163
979.0,-0.166
980.0,-0.168
981.0,-0.170
982.0,-0.173
983.0,-0.175
984.0,-0.177
985.0,-0.179
986.0,-0.181
987.0,-0.183
988.0,-0.184
989.0,-0.186
990.0,-0.187
991.0,-0.189
992.0,-0.190
993.0,-0.192
994.0,-0.193
995.0,-0.195
996.0,-0.196
997.0,-0.197
998.0,-0.199
999.0,-0.200
1000.0,-0.201
1001.0,-0.202
1002.0,-0.203
1003.0,-0.204
1004.0,-0.205
1005.0,-0.206
1006.0,-0.207
1007.0,-0.208
1008.0,-0.209
1009.0,-0.210
1010.0,-0.210
1011.0,-0.211
1012.0,-0.212
1013.0,-0.213
1014.0,-0.213
1015.0,-0.214
1016.0,-0.215
1017.0,-0.215
1018.0,-0.216
1019.0,-0.216
1020.0,-0.217
1021.0,-0.217
1022.0,-0.218
1023.0,-0.218
1024.0,-0.218
1025.0,-0.219
1026.0,-0.219
1027.0,-0.219
1028.0,-0.220
1029.0,-0.220
1030.0,-0.220
1031.0,-0.220
1032.0,-0.220
1033.0,-0.221
1034.0,-0.221
1035.0,-0.221
1036.0,-0.221
1037.0,-0.221
1038.0,-0.222
1039.0,-0.222
1040.0,-0.222
1041.0,-0.222
1042.0,-0.222
1043.0,-0.222
1044.0,-0.222
1045.0,-0.222
1046.0,-0.222
1047.0,-0.222
1048.0,-0.222
1049.0,-0.222
1050.0,-0.222
1051.0,-0.222
1052.0,-0.222
1053.0,-0.222
1054.0,-0.222
1055.0,-0.221
1056.0,-0.221
1057.0,-0.221
1058.0,-0.221
1059.0,-0.221
1060.0,-0.221
1061.0,-0.221
1062.0,-0.221
1063.0,-0.220
1064.0,-0.220
1065.0,-0.220
1066.0,-0.220
1067.0,-0.220
1068.0,-0.219
1069.0,-0.219
1070.0,-0.219
1071.0,-0.219
1072.0,-0.219
1073.0,-0.218
1074.0,-0.218
1075.0,-0.218
1076.0,-0.217
1077.0,-0.217
1078.0,-0.217
1079.0,-0.216
1080.0,-0.216
1081.0,-0.216
1082.0,-0.216
1083.0,-0.216
1084.0,-0.215
1085.0,-0.215
1086.0,-0.215
1087.0,-0.214
1088.0,-0.214
1089.0,-0.213
1090.0,-0.213
1091.0,-0.213
1092.0,-0.213
1093.0,-0.212
1094.0,-0.212
1095.0,-0.211
1096.0,-0.211
1097.0,-0.211
1098.0,-0.210
1099.0,-0.210
1100.0,-0.210
