Summary
[Data Information]
Data is:,Measurement Data
Dataset Name:,RawData
Sample Name:,MD_P_amostra_P2_0-10_24_09_2025_pt
Sample ID
Option
Analyst
Date/Time:,09/24/2025 04:42:10 PM
Comments
Parameter File Name:,Esfera de Integração.vspm
Report File Name
[Software Information]
Software Name:,LabSolutions UV-Vis
Version:,1.11
[Instrument Information]
Instrument Name:,UV-2600i
Instrument Type:,UV-2600 Series
Model (S/N):,UV-2600i (A12595900700)

Parameter
[Measurement]
Start:,1100 nm
End:,400 nm
Data Interval:,1.0
Scan Speed:,High speed
Spectrum Type:,Absorbance
[Accessories]
Accessories:,None
[Advanced]
Slit Width:,5.0
Detector Unit:,External (2 Detector)
Light Source Switch Wavelength:,323
Detector Switch Wavelength:,830
S/R Switch:,Standard
Stair Correction:,ON
[Repeat]
Repeat Measurement:,OFF
[Post-processing]
Spectrum Transformation:,OFF
Data Processing Table:,OFF
Print:,OFF

Wavelength (nm),Absorbance
400.0,0.063
401.0,0.062
402.0,0.062
403.0,0.061
404.0,0.061
405.0,0.061
406.0,0.061
407.0,0.062
408.0,0.063
409.0,0.064
410.0,0.065
411.0,0.066
412.0,0.068
413.0,0.070
414.0,0.071
415.0,0.073
416.0,0.075
417.0,0.077
418.0,0.079
419.0,0.081
420.0,0.083
421.0,0.086
422.0,0.088
423.0,0.091
424.0,0.093
425.0,0.096
426.0,0.100
427.0,0.103
428.0,0.106
429.0,0.109
430.0,0.112
431.0,0.115
432.0,0.118
433.0,0.122
434.0,0.126
435.0,0.129
436.0,0.133
437.0,0.136
438.0,0.140
439.0,0.144
440.0,0.148
441.0,0.151
442.0,0.154
443.0,0.158
444.0,0.161
445.0,0.165
446.0,0.170
447.0,0.174
448.0,0.177
449.0,0.181
450.0,0.185
451.0,0.189
452.0,0.192
453.0,0.197
454.0,0.201
455.0,0.205
456.0,0.208
457.0,0.212
458.0,0.216
459.0,0.221
460.0,0.225
461.0,0.229
462.0,0.232
463.0,0.236
464.0,0.240
465.0,0.244
466.0,0.248
467.0,0.251
468.0,0.255
469.0,0.258
470.0,0.262
471.0,0.265
472.0,0.269
473.0,0.273
474.0,0.276
475.0,0.280
476.0,0.283
477.0,0.287
478.0,0.290
479.0,0.294
480.0,0.298
481.0,0.301
482.0,0.305
483.0,0.308
484.0,0.311
485.0,0.314
486.0,0.317
487.0,0.320
488.0,0.323
489.0,0.326
490.0,0.329
491.0,0.332
492.0,0.335
493.0,0.338
494.0,0.341
495.0,0.344
496.0,0.347
497.0,0.349
498.0,0.352
499.0,0.355
500.0,0.358
501.0,0.360
502.0,0.363
503.0,0.366
504.0,0.369
505.0,0.371
506.0,0.374
507.0,0.376
508.0,0.379
509.0,0.381
510.0,0.384
511.0,0.387
512.0,0.390
513.0,0.392
514.0,0.395
515.0,0.398
516.0,0.400
517.0,0.403
518.0,0.405
519.0,0.408
520.0,0.411
521.0,0.414
522.0,0.417
523.0,0.420
524.0,0.423
525.0,0.425
526.0,0.428
527.0,0.431
528.0,0.434
529.0,0.437
530.0,0.440
531.0,0.442
532.0,0.445
533.0,0.448
534.0,0.451
535.0,0.454
536.0,0.457
537.0,0.460
538.0,0.462
539.0,0.466
540.0,0.469
541.0,0.472
542.0,0.474
543.0,0.477
544.0,0.480
545.0,0.482
546.0,0.485
547.0,0.488
548.0,0.491
549.0,0.494
550.0,0.497
551.0,0.500
552.0,0.502
553.0,0.505
554.0,0.508
555.0,0.511
556.0,0.513
557.0,0.516
558.0,0.518
559.0,0.520
560.0,0.523
561.0,0.526
562.0,0.528
563.0,0.531
564.0,0.534
565.0,0.536
566.0,0.539
567.0,0.542
568.0,0.545
569.0,0.548
570.0,0.550
571.0,0.553
572.0,0.555
573.0,0.558
574.0,0.561
575.0,0.564
576.0,0.567
577.0,0.569
578.0,0.572
579.0,0.575
580.0,0.578
581.0,0.580
582.0,0.583
583.0,0.585
584.0,0.588
585.0,0.591
586.0,0.594
587.0,0.597
588.0,0.599
589.0,0.602
590.0,0.605
591.0,0.608
592.0,0.611
593.0,0.614
594.0,0.617
595.0,0.620
596.0,0.623
597.0,0.626
598.0,0.629
599.0,0.632
600.0,0.635
601.0,0.637
602.0,0.640
603.0,0.643
604.0,0.647
605.0,0.649
606.0,0.652
607.0,0.655
608.0,0.658
609.0,0.661
610.0,0.664
611.0,0.668
612.0,0.670
613.0,0.673
614.0,0.676
615.0,0.679
616.0,0.682
617.0,0.685
618.0,0.688
619.0,0.691
620.0,0.695
621.0,0.697
622.0,0.700
623.0,0.703
624.0,0.706
625.0,0.710
626.0,0.713
627.0,0.716
628.0,0.719
629.0,0.721
630.0,0.724
631.0,0.727
632.0,0.730
633.0,0.733
634.0,0.737
635.0,0.740
636.0,0.742
637.0,0.746
638.0,0.749
639.0,0.752
640.0,0.755
641.0,0.758
642.0,0.760
643.0,0.763
644.0,0.766
645.0,0.770
646.0,0.773
647.0,0.776
648.0,0.779
649.0,0.782
650.0,0.784
651.0,0.787
652.0,0.790
653.0,0.794
654.0,0.797
655.0,0.800
656.0,0.803
657.0,0.806
658.0,0.809
659.0,0.812
660.0,0.815
661.0,0.819
662.0,0.821
663.0,0.824
664.0,0.827
665.0,0.829
666.0,0.832
667.0,0.836
668.0,0.838
669.0,0.841
670.0,0.844
671.0,0.848
672.0,0.850
673.0,0.853
674.0,0.856
675.0,0.859
676.0,0.862
677.0,0.865
678.0,0.868
679.0,0.871
680.0,0.874
681.0,0.876
682.0,0.879
683.0,0.882
684.0,0.886
685.0,0.888
686.0,0.890
687.0,0.892
688.0,0.895
689.0,0.896
690.0,0.899
691.0,0.903
692.0,0.906
693.0,0.909
694.0,0.911
695.0,0.913
696.0,0.915
697.0,0.917
698.0,0.918
699.0,0.920
700.0,0.922
701.0,0.926
702.0,0.928
703.0,0.930
704.0,0.932
705.0,0.934
706.0,0.936
707.0,0.937
708.0,0.939
709.0,0.941
710.0,0.943
711.0,0.945
712.0,0.946
713.0,0.948
714.0,0.949
715.0,0.951
716.0,0.953
717.0,0.955
718.0,0.956
719.0,0.957
720.0,0.958
721.0,0.960
722.0,0.961
723.0,0.963
724.0,0.964
725.0,0.965
726.0,0.966
727.0,0.968
728.0,0.970
729.0,0.971
730.0,0.972
731.0,0.973
732.0,0.975
733.0,0.977
734.0,0.978
735.0,0.979
736.0,0.980
737.0,0.982
738.0,0.983
739.0,0.985
740.0,0.987
741.0,0.988
742.0,0.989
743.0,0.991
744.0,0.992
745.0,0.994
746.0,0.996
747.0,0.998
748.0,1.001
749.0,1.003
750.0,1.005
751.0,1.006
752.0,1.007
753.0,1.009
754.0,1.012
755.0,1.015
756.0,1.018
757.0,1.021
758.0,1.023
759.0,1.025
760.0,1.028
761.0,1.031
762.0,1.034
763.0,1.037
764.0,1.040
765.0,1.043
766.0,1.046
767.0,1.049
768.0,1.052
769.0,1.055
770.0,1.061
771.0,1.063
772.0,1.067
773.0,1.069
774.0,1.073
775.0,1.076
776.0,1.080
777.0,1.085
778.0,1.089
779.0,1.093
780.0,1.096
781.0,1.100
782.0,1.105
783.0,1.109
784.0,1.114
785.0,1.118
786.0,1.123
787.0,1.126
788.0,1.131
789.0,1.136
790.0,1.141
791.0,1.148
792.0,1.153
793.0,1.157
794.0,1.160
795.0,1.165
796.0,1.168
797.0,1.172
798.0,1.177
799.0,1.183
800.0,1.189
801.0,1.195
802.0,1.198
803.0,1.203
804.0,1.206
805.0,1.214
806.0,1.218
807.0,1.223
808.0,1.228
809.0,1.234
810.0,1.238
811.0,1.242
812.0,1.246
813.0,1.251
814.0,1.257
815.0,1.260
816.0,1.265
817.0,1.268
818.0,1.273
819.0,1.277
820.0,1.284
821.0,1.288
822.0,1.291
823.0,1.294
824.0,1.299
825.0,1.302
826.0,1.306
827.0,1.308
828.0,1.311
829.0,1.311
830.0,1.314
831.0,1.314
832.0,1.315
833.0,1.315
834.0,1.319
835.0,1.329
836.0,1.332
837.0,1.331
838.0,1.325
839.0,1.326
840.0,1.330
841.0,1.332
842.0,1.338
843.0,1.347
844.0,1.350
845.0,1.349
846.0,1.342
847.0,1.349
848.0,1.348
849.0,1.347
850.0,1.349
851.0,1.357
852.0,1.363
853.0,1.358
854.0,1.353
855.0,1.349
856.0,1.353
857.0,1.352
858.0,1.352
859.0,1.354
860.0,1.353
861.0,1.355
862.0,1.347
863.0,1.345
864.0,1.343
865.0,1.342
866.0,1.338
867.0,1.335
868.0,1.331
869.0,1.328
870.0,1.323
871.0,1.315
872.0,1.312
873.0,1.308
874.0,1.301
875.0,1.297
876.0,1.289
877.0,1.283
878.0,1.276
879.0,1.267
880.0,1.262
881.0,1.252
882.0,1.244
883.0,1.235
884.0,1.230
885.0,1.221
886.0,1.211
887.0,1.197
888.0,1.191
889.0,1.182
890.0,1.176
891.0,1.167
892.0,1.157
893.0,1.147
894.0,1.138
895.0,1.133
896.0,1.126
897.0,1.116
898.0,1.103
899.0,1.091
900.0,1.080
901.0,1.072
902.0,1.064
903.0,1.055
904.0,1.046
905.0,1.038
906.0,1.028
907.0,1.020
908.0,1.012
909.0,1.003
910.0,0.994
911.0,0.986
912.0,0.978
913.0,0.971
914.0,0.963
915.0,0.957
916.0,0.949
917.0,0.942
918.0,0.933
919.0,0.925
920.0,0.918
921.0,0.910
922.0,0.903
923.0,0.896
924.0,0.889
925.0,0.882
926.0,0.874
927.0,0.867
928.0,0.861
929.0,0.855
930.0,0.848
931.0,0.841
932.0,0.834
933.0,0.828
934.0,0.822
935.0,0.816
936.0,0.809
937.0,0.802
938.0,0.795
939.0,0.789
940.0,0.782
941.0,0.776
942.0,0.770
943.0,0.763
944.0,0.757
945.0,0.751
946.0,0.744
947.0,0.738
948.0,0.732
949.0,0.726
950.0,0.721
951.0,0.714
952.0,0.708
953.0,0.702
954.0,0.696
955.0,0.691
956.0,0.686
957.0,0.680
958.0,0.675
959.0,0.669
960.0,0.664
961.0,0.659
962.0,0.654
963.0,0.649
964.0,0.644
965.0,0.638
966.0,0.633
967.0,0.628
968.0,0.623
969.0,0.618
970.0,0.613
971.0,0.608
972.0,0.604
973.0,0.599
974.0,0.594
975.0,0.589
976.0,0.585
977.0,0.580
978.0,0.575
979.0,0.570
980.0,0.566
981.0,0.561
982.0,0.556
983.0,0.551
984.0,0.546
985.0,0.542
986.0,0.538
987.0,0.534
988.0,0.530
989.0,0.525
990.0,0.521
991.0,0.517
992.0,0.513
993.0,0.509
994.0,0.504
995.0,0.501
996.0,0.497
997.0,0.493
998.0,0.489
999.0,0.485
1000.0,0.482
1001.0,0.478
1002.0,0.475
1003.0,0.471
1004.0,0.467
1005.0,0.464
1006.0,0.460
1007.0,0.457
1008.0,0.454
1009.0,0.451
1010.0,0.448
1011.0,0.445
1012.0,0.442
1013.0,0.438
1014.0,0.435
1015.0,0.432
1016.0,0.428
1017.0,0.426
1018.0,0.423
1019.0,0.419
1020.0,0.416
1021.0,0.414
1022.0,0.411
1023.0,0.409
1024.0,0.406
1025.0,0.404
1026.0,0.401
1027.0,0.398
1028.0,0.396
1029.0,0.393
1030.0,0.391
1031.0,0.388
1032.0,0.386
1033.0,0.384
1034.0,0.381
1035.0,0.379
1036.0,0.376
1037.0,0.374
1038.0,0.372
1039.0,0.369
1040.0,0.367
1041.0,0.365
1042.0,0.363
1043.0,0.361
1044.0,0.359
1045.0,0.357
1046.0,0.355
1047.0,0.353
1048.0,0.351
1049.0,0.349
1050.0,0.347
1051.0,0.345
1052.0,0.343
1053.0,0.341
1054.0,0.340
1055.0,0.338
1056.0,0.336
1057.0,0.334
1058.0,0.332
1059.0,0.331
1060.0,0.329
1061.0,0.327
1062.0,0.326
1063.0,0.324
1064.0,0.323
1065.0,0.321
1066.0,0.319
1067.0,0.318
1068.0,0.316
1069.0,0.315
1070.0,0.313
1071.0,0.312
1072.0,0.310
1073.0,0.308
1074.0,0.307
1075.0,0.305
1076.0,0.304
1077.0,0.302
1078.0,0.301
1079.0,0.300
1080.0,0.299
1081.0,0.297
1082.0,0.296
1083.0,0.294
1084.0,0.293
1085.0,0.291
1086.0,0.290
1087.0,0.289
1088.0,0.287
1089.0,0.286
1090.0,0.285
1091.0,0.284
1092.0,0.282
1093.0,0.281
1094.0,0.280
1095.0,0.279
1096.0,0.278
1097.0,0.276
1098.0,0.275
1099.0,0.274
1100.0,0.273
