Summary
[Data Information]
Data is:,Measurement Data
Dataset Name:,RawData
Sample Name:,MD_P_amostra_R1_10-20_24_09_2025_pt
Sample ID
Option
Analyst
Date/Time:,09/24/2025 04:39:13 PM
Comments
Parameter File Name:,Esfera de Integração.vspm
Report File Name
[Software Information]
Software Name:,LabSolutions UV-Vis
Version:,1.11
[Instrument Information]
Instrument Name:,UV-2600i
Instrument Type:,UV-2600 Series
Model (S/N):,UV-2600i (A12595900700)

Parameter
[Measurement]
Start:,1100 nm
End:,400 nm
Data Interval:,1.0
Scan Speed:,High speed
Spectrum Type:,Absorbance
[Accessories]
Accessories:,None
[Advanced]
Slit Width:,5.0
Detector Unit:,External (2 Detector)
Light Source Switch Wavelength:,323
Detector Switch Wavelength:,830
S/R Switch:,Standard
Stair Correction:,ON
[Repeat]
Repeat Measurement:,OFF
[Post-processing]
Spectrum Transformation:,OFF
Data Processing Table:,OFF
Print:,OFF

Wavelength (nm),Absorbance
400.0,0.078
401.0,0.078
402.0,0.077
403.0,0.075
404.0,0.075
405.0,0.075
406.0,0.074
407.0,0.075
408.0,0.075
409.0,0.076
410.0,0.076
411.0,0.078
412.0,0.078
413.0,0.079
414.0,0.081
415.0,0.082
416.0,0.084
417.0,0.085
418.0,0.087
419.0,0.089
420.0,0.091
421.0,0.093
422.0,0.096
423.0,0.098
424.0,0.100
425.0,0.103
426.0,0.105
427.0,0.108
428.0,0.111
429.0,0.114
430.0,0.117
431.0,0.120
432.0,0.123
433.0,0.127
434.0,0.130
435.0,0.133
436.0,0.136
437.0,0.139
438.0,0.143
439.0,0.147
440.0,0.151
441.0,0.154
442.0,0.157
443.0,0.160
444.0,0.164
445.0,0.168
446.0,0.172
447.0,0.176
448.0,0.179
449.0,0.183
450.0,0.187
451.0,0.191
452.0,0.194
453.0,0.198
454.0,0.202
455.0,0.206
456.0,0.210
457.0,0.213
458.0,0.217
459.0,0.221
460.0,0.225
461.0,0.229
462.0,0.233
463.0,0.237
464.0,0.241
465.0,0.244
466.0,0.248
467.0,0.251
468.0,0.255
469.0,0.258
470.0,0.262
471.0,0.266
472.0,0.269
473.0,0.273
474.0,0.276
475.0,0.280
476.0,0.283
477.0,0.287
478.0,0.291
479.0,0.294
480.0,0.298
481.0,0.301
482.0,0.305
483.0,0.308
484.0,0.311
485.0,0.314
486.0,0.317
487.0,0.320
488.0,0.323
489.0,0.326
490.0,0.329
491.0,0.332
492.0,0.335
493.0,0.338
494.0,0.341
495.0,0.344
496.0,0.347
497.0,0.350
498.0,0.352
499.0,0.355
500.0,0.357
501.0,0.360
502.0,0.363
503.0,0.365
504.0,0.368
505.0,0.371
506.0,0.374
507.0,0.376
508.0,0.379
509.0,0.382
510.0,0.384
511.0,0.387
512.0,0.389
513.0,0.392
514.0,0.395
515.0,0.397
516.0,0.400
517.0,0.402
518.0,0.405
519.0,0.408
520.0,0.410
521.0,0.413
522.0,0.416
523.0,0.419
524.0,0.422
525.0,0.425
526.0,0.428
527.0,0.430
528.0,0.433
529.0,0.436
530.0,0.439
531.0,0.442
532.0,0.445
533.0,0.448
534.0,0.451
535.0,0.454
536.0,0.457
537.0,0.460
538.0,0.463
539.0,0.466
540.0,0.469
541.0,0.472
542.0,0.475
543.0,0.477
544.0,0.480
545.0,0.483
546.0,0.486
547.0,0.489
548.0,0.492
549.0,0.494
550.0,0.497
551.0,0.500
552.0,0.502
553.0,0.505
554.0,0.508
555.0,0.511
556.0,0.514
557.0,0.516
558.0,0.519
559.0,0.521
560.0,0.524
561.0,0.526
562.0,0.529
563.0,0.532
564.0,0.535
565.0,0.537
566.0,0.540
567.0,0.542
568.0,0.545
569.0,0.548
570.0,0.551
571.0,0.554
572.0,0.556
573.0,0.559
574.0,0.562
575.0,0.565
576.0,0.567
577.0,0.570
578.0,0.573
579.0,0.576
580.0,0.578
581.0,0.581
582.0,0.584
583.0,0.586
584.0,0.589
585.0,0.592
586.0,0.595
587.0,0.598
588.0,0.600
589.0,0.603
590.0,0.606
591.0,0.609
592.0,0.612
593.0,0.615
594.0,0.618
595.0,0.621
596.0,0.624
597.0,0.627
598.0,0.630
599.0,0.632
600.0,0.635
601.0,0.638
602.0,0.642
603.0,0.644
604.0,0.647
605.0,0.650
606.0,0.653
607.0,0.656
608.0,0.659
609.0,0.662
610.0,0.665
611.0,0.668
612.0,0.671
613.0,0.674
614.0,0.677
615.0,0.680
616.0,0.683
617.0,0.686
618.0,0.689
619.0,0.692
620.0,0.695
621.0,0.698
622.0,0.701
623.0,0.704
624.0,0.707
625.0,0.710
626.0,0.713
627.0,0.716
628.0,0.719
629.0,0.722
630.0,0.725
631.0,0.728
632.0,0.731
633.0,0.734
634.0,0.737
635.0,0.740
636.0,0.743
637.0,0.746
638.0,0.748
639.0,0.752
640.0,0.755
641.0,0.758
642.0,0.761
643.0,0.764
644.0,0.766
645.0,0.769
646.0,0.772
647.0,0.775
648.0,0.778
649.0,0.780
650.0,0.783
651.0,0.786
652.0,0.789
653.0,0.792
654.0,0.795
655.0,0.798
656.0,0.801
657.0,0.804
658.0,0.808
659.0,0.810
660.0,0.813
661.0,0.816
662.0,0.819
663.0,0.822
664.0,0.825
665.0,0.828
666.0,0.830
667.0,0.833
668.0,0.835
669.0,0.838
670.0,0.841
671.0,0.844
672.0,0.846
673.0,0.850
674.0,0.852
675.0,0.856
676.0,0.858
677.0,0.861
678.0,0.863
679.0,0.867
680.0,0.869
681.0,0.872
682.0,0.874
683.0,0.878
684.0,0.881
685.0,0.883
686.0,0.885
687.0,0.887
688.0,0.890
689.0,0.893
690.0,0.895
691.0,0.897
692.0,0.900
693.0,0.902
694.0,0.905
695.0,0.907
696.0,0.910
697.0,0.913
698.0,0.915
699.0,0.917
700.0,0.919
701.0,0.920
702.0,0.923
703.0,0.925
704.0,0.928
705.0,0.930
706.0,0.932
707.0,0.934
708.0,0.936
709.0,0.938
710.0,0.939
711.0,0.941
712.0,0.943
713.0,0.945
714.0,0.946
715.0,0.948
716.0,0.949
717.0,0.951
718.0,0.953
719.0,0.954
720.0,0.956
721.0,0.957
722.0,0.960
723.0,0.963
724.0,0.964
725.0,0.964
726.0,0.965
727.0,0.968
728.0,0.970
729.0,0.973
730.0,0.973
731.0,0.974
732.0,0.975
733.0,0.978
734.0,0.980
735.0,0.982
736.0,0.983
737.0,0.985
738.0,0.986
739.0,0.988
740.0,0.991
741.0,0.993
742.0,0.993
743.0,0.994
744.0,0.996
745.0,0.999
746.0,1.001
747.0,1.004
748.0,1.005
749.0,1.008
750.0,1.011
751.0,1.013
752.0,1.016
753.0,1.018
754.0,1.020
755.0,1.022
756.0,1.024
757.0,1.027
758.0,1.030
759.0,1.032
760.0,1.035
761.0,1.037
762.0,1.040
763.0,1.043
764.0,1.046
765.0,1.051
766.0,1.054
767.0,1.057
768.0,1.060
769.0,1.063
770.0,1.067
771.0,1.070
772.0,1.073
773.0,1.077
774.0,1.081
775.0,1.085
776.0,1.088
777.0,1.093
778.0,1.096
779.0,1.100
780.0,1.104
781.0,1.108
782.0,1.113
783.0,1.116
784.0,1.120
785.0,1.124
786.0,1.130
787.0,1.135
788.0,1.138
789.0,1.141
790.0,1.146
791.0,1.152
792.0,1.158
793.0,1.162
794.0,1.166
795.0,1.170
796.0,1.174
797.0,1.178
798.0,1.183
799.0,1.187
800.0,1.191
801.0,1.196
802.0,1.200
803.0,1.205
804.0,1.212
805.0,1.217
806.0,1.221
807.0,1.223
808.0,1.228
809.0,1.234
810.0,1.241
811.0,1.245
812.0,1.249
813.0,1.254
814.0,1.260
815.0,1.262
816.0,1.264
817.0,1.267
818.0,1.271
819.0,1.276
820.0,1.280
821.0,1.284
822.0,1.288
823.0,1.291
824.0,1.294
825.0,1.298
826.0,1.300
827.0,1.301
828.0,1.303
829.0,1.305
830.0,1.310
831.0,1.312
832.0,1.313
833.0,1.317
834.0,1.318
835.0,1.319
836.0,1.319
837.0,1.318
838.0,1.322
839.0,1.322
840.0,1.328
841.0,1.329
842.0,1.332
843.0,1.331
844.0,1.335
845.0,1.339
846.0,1.342
847.0,1.338
848.0,1.334
849.0,1.337
850.0,1.338
851.0,1.343
852.0,1.341
853.0,1.346
854.0,1.344
855.0,1.342
856.0,1.338
857.0,1.337
858.0,1.335
859.0,1.336
860.0,1.334
861.0,1.331
862.0,1.328
863.0,1.328
864.0,1.328
865.0,1.325
866.0,1.323
867.0,1.320
868.0,1.314
869.0,1.310
870.0,1.301
871.0,1.298
872.0,1.291
873.0,1.286
874.0,1.280
875.0,1.274
876.0,1.270
877.0,1.268
878.0,1.262
879.0,1.253
880.0,1.245
881.0,1.236
882.0,1.227
883.0,1.216
884.0,1.210
885.0,1.202
886.0,1.191
887.0,1.179
888.0,1.171
889.0,1.164
890.0,1.155
891.0,1.144
892.0,1.136
893.0,1.126
894.0,1.118
895.0,1.108
896.0,1.097
897.0,1.088
898.0,1.079
899.0,1.071
900.0,1.062
901.0,1.052
902.0,1.044
903.0,1.034
904.0,1.026
905.0,1.016
906.0,1.007
907.0,0.998
908.0,0.990
909.0,0.983
910.0,0.975
911.0,0.967
912.0,0.959
913.0,0.950
914.0,0.943
915.0,0.934
916.0,0.926
917.0,0.918
918.0,0.911
919.0,0.904
920.0,0.897
921.0,0.889
922.0,0.881
923.0,0.874
924.0,0.866
925.0,0.859
926.0,0.852
927.0,0.845
928.0,0.838
929.0,0.832
930.0,0.824
931.0,0.817
932.0,0.810
933.0,0.805
934.0,0.798
935.0,0.791
936.0,0.784
937.0,0.778
938.0,0.772
939.0,0.765
940.0,0.759
941.0,0.753
942.0,0.746
943.0,0.739
944.0,0.733
945.0,0.727
946.0,0.721
947.0,0.715
948.0,0.709
949.0,0.703
950.0,0.697
951.0,0.691
952.0,0.685
953.0,0.680
954.0,0.674
955.0,0.669
956.0,0.664
957.0,0.659
958.0,0.652
959.0,0.647
960.0,0.642
961.0,0.637
962.0,0.632
963.0,0.627
964.0,0.623
965.0,0.618
966.0,0.613
967.0,0.608
968.0,0.604
969.0,0.599
970.0,0.594
971.0,0.589
972.0,0.585
973.0,0.581
974.0,0.577
975.0,0.573
976.0,0.568
977.0,0.564
978.0,0.559
979.0,0.554
980.0,0.550
981.0,0.546
982.0,0.542
983.0,0.537
984.0,0.533
985.0,0.529
986.0,0.525
987.0,0.521
988.0,0.517
989.0,0.513
990.0,0.510
991.0,0.506
992.0,0.502
993.0,0.498
994.0,0.495
995.0,0.491
996.0,0.488
997.0,0.484
998.0,0.480
999.0,0.477
1000.0,0.474
1001.0,0.471
1002.0,0.467
1003.0,0.464
1004.0,0.461
1005.0,0.458
1006.0,0.455
1007.0,0.451
1008.0,0.448
1009.0,0.446
1010.0,0.443
1011.0,0.440
1012.0,0.437
1013.0,0.434
1014.0,0.431
1015.0,0.428
1016.0,0.426
1017.0,0.423
1018.0,0.420
1019.0,0.418
1020.0,0.415
1021.0,0.413
1022.0,0.410
1023.0,0.407
1024.0,0.405
1025.0,0.403
1026.0,0.400
1027.0,0.398
1028.0,0.396
1029.0,0.393
1030.0,0.391
1031.0,0.389
1032.0,0.386
1033.0,0.384
1034.0,0.382
1035.0,0.380
1036.0,0.378
1037.0,0.376
1038.0,0.374
1039.0,0.372
1040.0,0.370
1041.0,0.368
1042.0,0.366
1043.0,0.364
1044.0,0.362
1045.0,0.361
1046.0,0.359
1047.0,0.357
1048.0,0.355
1049.0,0.353
1050.0,0.351
1051.0,0.349
1052.0,0.348
1053.0,0.346
1054.0,0.344
1055.0,0.343
1056.0,0.341
1057.0,0.339
1058.0,0.337
1059.0,0.336
1060.0,0.334
1061.0,0.333
1062.0,0.331
1063.0,0.330
1064.0,0.328
1065.0,0.326
1066.0,0.325
1067.0,0.324
1068.0,0.322
1069.0,0.320
1070.0,0.319
1071.0,0.317
1072.0,0.316
1073.0,0.315
1074.0,0.313
1075.0,0.312
1076.0,0.311
1077.0,0.309
1078.0,0.308
1079.0,0.306
1080.0,0.305
1081.0,0.304
1082.0,0.303
1083.0,0.301
1084.0,0.300
1085.0,0.299
1086.0,0.297
1087.0,0.296
1088.0,0.295
1089.0,0.293
1090.0,0.292
1091.0,0.291
1092.0,0.290
1093.0,0.289
1094.0,0.287
1095.0,0.286
1096.0,0.285
1097.0,0.284
1098.0,0.283
1099.0,0.281
1100.0,0.280
