Summary
[Data Information]
Data is:,Measurement Data
Dataset Name:,RawData
Sample Name:,MD_P_amostra_P2_10-20_24_09_2025_pt
Sample ID
Option
Analyst
Date/Time:,09/24/2025 04:44:41 PM
Comments
Parameter File Name:,Esfera de Integração.vspm
Report File Name
[Software Information]
Software Name:,LabSolutions UV-Vis
Version:,1.11
[Instrument Information]
Instrument Name:,UV-2600i
Instrument Type:,UV-2600 Series
Model (S/N):,UV-2600i (A12595900700)

Parameter
[Measurement]
Start:,1100 nm
End:,400 nm
Data Interval:,1.0
Scan Speed:,High speed
Spectrum Type:,Absorbance
[Accessories]
Accessories:,None
[Advanced]
Slit Width:,5.0
Detector Unit:,External (2 Detector)
Light Source Switch Wavelength:,323
Detector Switch Wavelength:,830
S/R Switch:,Standard
Stair Correction:,ON
[Repeat]
Repeat Measurement:,OFF
[Post-processing]
Spectrum Transformation:,OFF
Data Processing Table:,OFF
Print:,OFF

Wavelength (nm),Absorbance
400.0,0.068
401.0,0.067
402.0,0.067
403.0,0.066
404.0,0.067
405.0,0.067
406.0,0.068
407.0,0.068
408.0,0.069
409.0,0.070
410.0,0.072
411.0,0.073
412.0,0.075
413.0,0.076
414.0,0.078
415.0,0.080
416.0,0.082
417.0,0.084
418.0,0.086
419.0,0.088
420.0,0.091
421.0,0.093
422.0,0.095
423.0,0.098
424.0,0.100
425.0,0.103
426.0,0.106
427.0,0.109
428.0,0.112
429.0,0.116
430.0,0.119
431.0,0.122
432.0,0.125
433.0,0.129
434.0,0.132
435.0,0.136
436.0,0.139
437.0,0.142
438.0,0.146
439.0,0.150
440.0,0.153
441.0,0.157
442.0,0.160
443.0,0.164
444.0,0.167
445.0,0.170
446.0,0.175
447.0,0.178
448.0,0.182
449.0,0.186
450.0,0.189
451.0,0.193
452.0,0.197
453.0,0.200
454.0,0.205
455.0,0.208
456.0,0.212
457.0,0.216
458.0,0.219
459.0,0.223
460.0,0.227
461.0,0.231
462.0,0.235
463.0,0.239
464.0,0.242
465.0,0.246
466.0,0.249
467.0,0.253
468.0,0.256
469.0,0.259
470.0,0.263
471.0,0.267
472.0,0.270
473.0,0.274
474.0,0.277
475.0,0.280
476.0,0.284
477.0,0.287
478.0,0.291
479.0,0.294
480.0,0.298
481.0,0.301
482.0,0.304
483.0,0.307
484.0,0.310
485.0,0.313
486.0,0.317
487.0,0.319
488.0,0.322
489.0,0.325
490.0,0.328
491.0,0.330
492.0,0.333
493.0,0.336
494.0,0.339
495.0,0.341
496.0,0.344
497.0,0.347
498.0,0.349
499.0,0.352
500.0,0.354
501.0,0.357
502.0,0.359
503.0,0.362
504.0,0.365
505.0,0.367
506.0,0.370
507.0,0.373
508.0,0.375
509.0,0.377
510.0,0.379
511.0,0.382
512.0,0.385
513.0,0.387
514.0,0.390
515.0,0.392
516.0,0.395
517.0,0.397
518.0,0.399
519.0,0.402
520.0,0.405
521.0,0.408
522.0,0.410
523.0,0.413
524.0,0.416
525.0,0.419
526.0,0.422
527.0,0.424
528.0,0.427
529.0,0.429
530.0,0.432
531.0,0.434
532.0,0.437
533.0,0.440
534.0,0.443
535.0,0.446
536.0,0.448
537.0,0.451
538.0,0.454
539.0,0.456
540.0,0.459
541.0,0.462
542.0,0.464
543.0,0.467
544.0,0.470
545.0,0.472
546.0,0.475
547.0,0.478
548.0,0.480
549.0,0.483
550.0,0.486
551.0,0.488
552.0,0.491
553.0,0.493
554.0,0.496
555.0,0.498
556.0,0.501
557.0,0.503
558.0,0.505
559.0,0.508
560.0,0.510
561.0,0.513
562.0,0.515
563.0,0.518
564.0,0.521
565.0,0.523
566.0,0.525
567.0,0.528
568.0,0.531
569.0,0.534
570.0,0.536
571.0,0.539
572.0,0.541
573.0,0.544
574.0,0.546
575.0,0.549
576.0,0.552
577.0,0.555
578.0,0.557
579.0,0.560
580.0,0.562
581.0,0.565
582.0,0.567
583.0,0.570
584.0,0.572
585.0,0.575
586.0,0.578
587.0,0.581
588.0,0.583
589.0,0.587
590.0,0.589
591.0,0.592
592.0,0.594
593.0,0.597
594.0,0.600
595.0,0.603
596.0,0.606
597.0,0.609
598.0,0.611
599.0,0.614
600.0,0.617
601.0,0.619
602.0,0.622
603.0,0.625
604.0,0.628
605.0,0.630
606.0,0.633
607.0,0.636
608.0,0.639
609.0,0.642
610.0,0.645
611.0,0.648
612.0,0.650
613.0,0.653
614.0,0.656
615.0,0.659
616.0,0.662
617.0,0.664
618.0,0.668
619.0,0.671
620.0,0.674
621.0,0.677
622.0,0.679
623.0,0.682
624.0,0.685
625.0,0.688
626.0,0.691
627.0,0.694
628.0,0.697
629.0,0.700
630.0,0.703
631.0,0.706
632.0,0.709
633.0,0.712
634.0,0.715
635.0,0.718
636.0,0.720
637.0,0.724
638.0,0.727
639.0,0.730
640.0,0.732
641.0,0.736
642.0,0.739
643.0,0.742
644.0,0.744
645.0,0.748
646.0,0.751
647.0,0.753
648.0,0.756
649.0,0.759
650.0,0.762
651.0,0.765
652.0,0.768
653.0,0.772
654.0,0.775
655.0,0.778
656.0,0.781
657.0,0.784
658.0,0.787
659.0,0.790
660.0,0.793
661.0,0.796
662.0,0.799
663.0,0.802
664.0,0.804
665.0,0.808
666.0,0.811
667.0,0.814
668.0,0.817
669.0,0.820
670.0,0.823
671.0,0.826
672.0,0.828
673.0,0.831
674.0,0.834
675.0,0.837
676.0,0.840
677.0,0.842
678.0,0.846
679.0,0.849
680.0,0.852
681.0,0.855
682.0,0.858
683.0,0.860
684.0,0.863
685.0,0.865
686.0,0.867
687.0,0.869
688.0,0.872
689.0,0.874
690.0,0.878
691.0,0.880
692.0,0.883
693.0,0.885
694.0,0.887
695.0,0.888
696.0,0.891
697.0,0.893
698.0,0.895
699.0,0.897
700.0,0.899
701.0,0.901
702.0,0.903
703.0,0.905
704.0,0.907
705.0,0.908
706.0,0.910
707.0,0.911
708.0,0.913
709.0,0.915
710.0,0.916
711.0,0.918
712.0,0.919
713.0,0.921
714.0,0.921
715.0,0.923
716.0,0.924
717.0,0.925
718.0,0.925
719.0,0.926
720.0,0.927
721.0,0.928
722.0,0.929
723.0,0.931
724.0,0.933
725.0,0.933
726.0,0.933
727.0,0.934
728.0,0.935
729.0,0.936
730.0,0.937
731.0,0.938
732.0,0.940
733.0,0.940
734.0,0.941
735.0,0.942
736.0,0.943
737.0,0.944
738.0,0.945
739.0,0.946
740.0,0.948
741.0,0.948
742.0,0.949
743.0,0.950
744.0,0.952
745.0,0.953
746.0,0.954
747.0,0.956
748.0,0.957
749.0,0.959
750.0,0.960
751.0,0.961
752.0,0.962
753.0,0.964
754.0,0.967
755.0,0.969
756.0,0.971
757.0,0.972
758.0,0.974
759.0,0.977
760.0,0.980
761.0,0.982
762.0,0.984
763.0,0.986
764.0,0.989
765.0,0.992
766.0,0.995
767.0,0.997
768.0,1.001
769.0,1.004
770.0,1.007
771.0,1.008
772.0,1.011
773.0,1.014
774.0,1.019
775.0,1.022
776.0,1.025
777.0,1.028
778.0,1.031
779.0,1.035
780.0,1.038
781.0,1.043
782.0,1.047
783.0,1.051
784.0,1.055
785.0,1.059
786.0,1.063
787.0,1.067
788.0,1.071
789.0,1.077
790.0,1.082
791.0,1.086
792.0,1.090
793.0,1.094
794.0,1.097
795.0,1.102
796.0,1.106
797.0,1.112
798.0,1.116
799.0,1.123
800.0,1.126
801.0,1.132
802.0,1.134
803.0,1.141
804.0,1.145
805.0,1.151
806.0,1.154
807.0,1.158
808.0,1.163
809.0,1.169
810.0,1.174
811.0,1.177
812.0,1.181
813.0,1.185
814.0,1.193
815.0,1.197
816.0,1.202
817.0,1.206
818.0,1.211
819.0,1.215
820.0,1.219
821.0,1.222
822.0,1.227
823.0,1.231
824.0,1.235
825.0,1.239
826.0,1.242
827.0,1.243
828.0,1.246
829.0,1.249
830.0,1.253
831.0,1.257
832.0,1.261
833.0,1.262
834.0,1.261
835.0,1.264
836.0,1.269
837.0,1.274
838.0,1.278
839.0,1.278
840.0,1.280
841.0,1.281
842.0,1.288
843.0,1.291
844.0,1.290
845.0,1.289
846.0,1.289
847.0,1.294
848.0,1.301
849.0,1.307
850.0,1.308
851.0,1.300
852.0,1.300
853.0,1.302
854.0,1.306
855.0,1.305
856.0,1.303
857.0,1.305
858.0,1.305
859.0,1.305
860.0,1.304
861.0,1.303
862.0,1.304
863.0,1.301
864.0,1.298
865.0,1.296
866.0,1.296
867.0,1.293
868.0,1.289
869.0,1.285
870.0,1.281
871.0,1.276
872.0,1.273
873.0,1.267
874.0,1.262
875.0,1.256
876.0,1.251
877.0,1.245
878.0,1.238
879.0,1.232
880.0,1.225
881.0,1.218
882.0,1.211
883.0,1.202
884.0,1.195
885.0,1.185
886.0,1.177
887.0,1.167
888.0,1.161
889.0,1.153
890.0,1.145
891.0,1.136
892.0,1.125
893.0,1.119
894.0,1.113
895.0,1.105
896.0,1.095
897.0,1.083
898.0,1.076
899.0,1.067
900.0,1.060
901.0,1.052
902.0,1.043
903.0,1.035
904.0,1.024
905.0,1.015
906.0,1.006
907.0,0.999
908.0,0.992
909.0,0.984
910.0,0.975
911.0,0.968
912.0,0.961
913.0,0.953
914.0,0.946
915.0,0.938
916.0,0.933
917.0,0.925
918.0,0.918
919.0,0.911
920.0,0.905
921.0,0.898
922.0,0.890
923.0,0.883
924.0,0.876
925.0,0.870
926.0,0.864
927.0,0.857
928.0,0.850
929.0,0.844
930.0,0.837
931.0,0.831
932.0,0.825
933.0,0.818
934.0,0.813
935.0,0.807
936.0,0.802
937.0,0.795
938.0,0.789
939.0,0.782
940.0,0.775
941.0,0.769
942.0,0.764
943.0,0.758
944.0,0.751
945.0,0.745
946.0,0.739
947.0,0.733
948.0,0.727
949.0,0.721
950.0,0.716
951.0,0.710
952.0,0.705
953.0,0.699
954.0,0.694
955.0,0.688
956.0,0.683
957.0,0.678
958.0,0.673
959.0,0.667
960.0,0.662
961.0,0.657
962.0,0.651
963.0,0.646
964.0,0.642
965.0,0.637
966.0,0.631
967.0,0.626
968.0,0.621
969.0,0.617
970.0,0.611
971.0,0.606
972.0,0.601
973.0,0.596
974.0,0.591
975.0,0.586
976.0,0.582
977.0,0.577
978.0,0.573
979.0,0.568
980.0,0.563
981.0,0.558
982.0,0.554
983.0,0.549
984.0,0.544
985.0,0.540
986.0,0.535
987.0,0.531
988.0,0.526
989.0,0.522
990.0,0.518
991.0,0.514
992.0,0.509
993.0,0.505
994.0,0.501
995.0,0.497
996.0,0.493
997.0,0.489
998.0,0.484
999.0,0.481
1000.0,0.477
1001.0,0.473
1002.0,0.469
1003.0,0.465
1004.0,0.462
1005.0,0.458
1006.0,0.455
1007.0,0.451
1008.0,0.448
1009.0,0.445
1010.0,0.441
1011.0,0.438
1012.0,0.435
1013.0,0.431
1014.0,0.427
1015.0,0.424
1016.0,0.421
1017.0,0.418
1018.0,0.415
1019.0,0.412
1020.0,0.409
1021.0,0.406
1022.0,0.404
1023.0,0.401
1024.0,0.398
1025.0,0.395
1026.0,0.392
1027.0,0.390
1028.0,0.388
1029.0,0.385
1030.0,0.382
1031.0,0.379
1032.0,0.377
1033.0,0.375
1034.0,0.372
1035.0,0.370
1036.0,0.367
1037.0,0.365
1038.0,0.362
1039.0,0.360
1040.0,0.358
1041.0,0.356
1042.0,0.354
1043.0,0.352
1044.0,0.350
1045.0,0.348
1046.0,0.346
1047.0,0.344
1048.0,0.342
1049.0,0.340
1050.0,0.337
1051.0,0.335
1052.0,0.333
1053.0,0.331
1054.0,0.330
1055.0,0.328
1056.0,0.326
1057.0,0.324
1058.0,0.322
1059.0,0.320
1060.0,0.318
1061.0,0.317
1062.0,0.315
1063.0,0.314
1064.0,0.312
1065.0,0.311
1066.0,0.309
1067.0,0.307
1068.0,0.306
1069.0,0.304
1070.0,0.302
1071.0,0.301
1072.0,0.299
1073.0,0.297
1074.0,0.296
1075.0,0.295
1076.0,0.293
1077.0,0.292
1078.0,0.290
1079.0,0.289
1080.0,0.287
1081.0,0.286
1082.0,0.285
1083.0,0.283
1084.0,0.282
1085.0,0.281
1086.0,0.279
1087.0,0.278
1088.0,0.276
1089.0,0.275
1090.0,0.274
1091.0,0.273
1092.0,0.272
1093.0,0.270
1094.0,0.269
1095.0,0.268
1096.0,0.266
1097.0,0.265
1098.0,0.264
1099.0,0.263
1100.0,0.262
