Summary
[Data Information]
Data is:,Measurement Data
Dataset Name:,RawData
Sample Name:,MD_P_amostra_R2_10-20_24_09_2025_pt
Sample ID
Option
Analyst
Date/Time:,09/24/2025 04:50:19 PM
Comments
Parameter File Name:,Esfera de Integração.vspm
Report File Name
[Software Information]
Software Name:,LabSolutions UV-Vis
Version:,1.11
[Instrument Information]
Instrument Name:,UV-2600i
Instrument Type:,UV-2600 Series
Model (S/N):,UV-2600i (A12595900700)

Parameter
[Measurement]
Start:,1100 nm
End:,400 nm
Data Interval:,1.0
Scan Speed:,High speed
Spectrum Type:,Absorbance
[Accessories]
Accessories:,None
[Advanced]
Slit Width:,5.0
Detector Unit:,External (2 Detector)
Light Source Switch Wavelength:,323
Detector Switch Wavelength:,830
S/R Switch:,Standard
Stair Correction:,ON
[Repeat]
Repeat Measurement:,OFF
[Post-processing]
Spectrum Transformation:,OFF
Data Processing Table:,OFF
Print:,OFF

Wavelength (nm),Absorbance
400.0,0.068
401.0,0.067
402.0,0.067
403.0,0.066
404.0,0.066
405.0,0.066
406.0,0.067
407.0,0.067
408.0,0.068
409.0,0.069
410.0,0.070
411.0,0.071
412.0,0.072
413.0,0.074
414.0,0.076
415.0,0.078
416.0,0.079
417.0,0.081
418.0,0.084
419.0,0.086
420.0,0.088
421.0,0.090
422.0,0.092
423.0,0.095
424.0,0.097
425.0,0.100
426.0,0.103
427.0,0.106
428.0,0.109
429.0,0.113
430.0,0.116
431.0,0.119
432.0,0.122
433.0,0.126
434.0,0.130
435.0,0.134
436.0,0.137
437.0,0.140
438.0,0.144
439.0,0.148
440.0,0.151
441.0,0.155
442.0,0.158
443.0,0.162
444.0,0.165
445.0,0.169
446.0,0.173
447.0,0.177
448.0,0.181
449.0,0.184
450.0,0.188
451.0,0.192
452.0,0.196
453.0,0.200
454.0,0.204
455.0,0.208
456.0,0.212
457.0,0.216
458.0,0.220
459.0,0.224
460.0,0.228
461.0,0.232
462.0,0.236
463.0,0.239
464.0,0.243
465.0,0.246
466.0,0.250
467.0,0.254
468.0,0.257
469.0,0.261
470.0,0.264
471.0,0.268
472.0,0.272
473.0,0.275
474.0,0.279
475.0,0.282
476.0,0.286
477.0,0.289
478.0,0.293
479.0,0.296
480.0,0.300
481.0,0.303
482.0,0.306
483.0,0.309
484.0,0.313
485.0,0.316
486.0,0.319
487.0,0.322
488.0,0.325
489.0,0.328
490.0,0.331
491.0,0.333
492.0,0.336
493.0,0.339
494.0,0.342
495.0,0.345
496.0,0.348
497.0,0.351
498.0,0.353
499.0,0.356
500.0,0.359
501.0,0.361
502.0,0.364
503.0,0.367
504.0,0.370
505.0,0.372
506.0,0.375
507.0,0.377
508.0,0.380
509.0,0.382
510.0,0.385
511.0,0.388
512.0,0.390
513.0,0.392
514.0,0.395
515.0,0.398
516.0,0.400
517.0,0.403
518.0,0.405
519.0,0.409
520.0,0.411
521.0,0.414
522.0,0.417
523.0,0.420
524.0,0.423
525.0,0.426
526.0,0.428
527.0,0.431
528.0,0.434
529.0,0.437
530.0,0.439
531.0,0.442
532.0,0.445
533.0,0.448
534.0,0.451
535.0,0.454
536.0,0.457
537.0,0.460
538.0,0.462
539.0,0.465
540.0,0.468
541.0,0.471
542.0,0.474
543.0,0.476
544.0,0.479
545.0,0.482
546.0,0.485
547.0,0.488
548.0,0.490
549.0,0.493
550.0,0.496
551.0,0.499
552.0,0.502
553.0,0.504
554.0,0.507
555.0,0.510
556.0,0.512
557.0,0.515
558.0,0.517
559.0,0.520
560.0,0.522
561.0,0.525
562.0,0.527
563.0,0.530
564.0,0.533
565.0,0.535
566.0,0.538
567.0,0.541
568.0,0.544
569.0,0.547
570.0,0.550
571.0,0.552
572.0,0.554
573.0,0.557
574.0,0.559
575.0,0.562
576.0,0.565
577.0,0.568
578.0,0.571
579.0,0.573
580.0,0.576
581.0,0.579
582.0,0.582
583.0,0.584
584.0,0.587
585.0,0.589
586.0,0.592
587.0,0.595
588.0,0.598
589.0,0.601
590.0,0.604
591.0,0.607
592.0,0.609
593.0,0.613
594.0,0.616
595.0,0.619
596.0,0.621
597.0,0.624
598.0,0.627
599.0,0.630
600.0,0.632
601.0,0.635
602.0,0.638
603.0,0.641
604.0,0.644
605.0,0.647
606.0,0.650
607.0,0.653
608.0,0.656
609.0,0.660
610.0,0.663
611.0,0.665
612.0,0.668
613.0,0.671
614.0,0.674
615.0,0.676
616.0,0.680
617.0,0.683
618.0,0.687
619.0,0.690
620.0,0.692
621.0,0.695
622.0,0.698
623.0,0.701
624.0,0.704
625.0,0.707
626.0,0.710
627.0,0.713
628.0,0.716
629.0,0.719
630.0,0.721
631.0,0.724
632.0,0.728
633.0,0.731
634.0,0.734
635.0,0.737
636.0,0.740
637.0,0.743
638.0,0.746
639.0,0.749
640.0,0.751
641.0,0.755
642.0,0.758
643.0,0.761
644.0,0.764
645.0,0.767
646.0,0.770
647.0,0.773
648.0,0.776
649.0,0.778
650.0,0.781
651.0,0.784
652.0,0.787
653.0,0.790
654.0,0.793
655.0,0.797
656.0,0.799
657.0,0.802
658.0,0.805
659.0,0.808
660.0,0.811
661.0,0.814
662.0,0.817
663.0,0.821
664.0,0.823
665.0,0.826
666.0,0.829
667.0,0.832
668.0,0.835
669.0,0.837
670.0,0.840
671.0,0.844
672.0,0.846
673.0,0.849
674.0,0.852
675.0,0.854
676.0,0.857
677.0,0.860
678.0,0.864
679.0,0.866
680.0,0.869
681.0,0.871
682.0,0.874
683.0,0.878
684.0,0.881
685.0,0.883
686.0,0.885
687.0,0.887
688.0,0.890
689.0,0.892
690.0,0.895
691.0,0.898
692.0,0.901
693.0,0.903
694.0,0.905
695.0,0.907
696.0,0.910
697.0,0.913
698.0,0.915
699.0,0.916
700.0,0.918
701.0,0.921
702.0,0.923
703.0,0.925
704.0,0.927
705.0,0.929
706.0,0.930
707.0,0.932
708.0,0.934
709.0,0.936
710.0,0.937
711.0,0.939
712.0,0.941
713.0,0.943
714.0,0.945
715.0,0.946
716.0,0.947
717.0,0.949
718.0,0.950
719.0,0.952
720.0,0.952
721.0,0.954
722.0,0.955
723.0,0.958
724.0,0.959
725.0,0.960
726.0,0.961
727.0,0.963
728.0,0.964
729.0,0.965
730.0,0.967
731.0,0.968
732.0,0.970
733.0,0.971
734.0,0.972
735.0,0.974
736.0,0.976
737.0,0.977
738.0,0.979
739.0,0.981
740.0,0.983
741.0,0.985
742.0,0.986
743.0,0.988
744.0,0.989
745.0,0.991
746.0,0.993
747.0,0.994
748.0,0.996
749.0,0.998
750.0,1.001
751.0,1.003
752.0,1.006
753.0,1.008
754.0,1.011
755.0,1.013
756.0,1.015
757.0,1.017
758.0,1.020
759.0,1.023
760.0,1.026
761.0,1.028
762.0,1.031
763.0,1.035
764.0,1.039
765.0,1.042
766.0,1.045
767.0,1.047
768.0,1.050
769.0,1.053
770.0,1.056
771.0,1.060
772.0,1.064
773.0,1.068
774.0,1.072
775.0,1.075
776.0,1.078
777.0,1.082
778.0,1.086
779.0,1.091
780.0,1.095
781.0,1.099
782.0,1.104
783.0,1.108
784.0,1.113
785.0,1.117
786.0,1.122
787.0,1.127
788.0,1.132
789.0,1.136
790.0,1.141
791.0,1.147
792.0,1.153
793.0,1.157
794.0,1.161
795.0,1.166
796.0,1.172
797.0,1.176
798.0,1.179
799.0,1.184
800.0,1.189
801.0,1.194
802.0,1.198
803.0,1.202
804.0,1.207
805.0,1.214
806.0,1.221
807.0,1.226
808.0,1.230
809.0,1.235
810.0,1.240
811.0,1.246
812.0,1.249
813.0,1.254
814.0,1.260
815.0,1.266
816.0,1.272
817.0,1.274
818.0,1.279
819.0,1.284
820.0,1.289
821.0,1.292
822.0,1.295
823.0,1.299
824.0,1.303
825.0,1.304
826.0,1.309
827.0,1.312
828.0,1.316
829.0,1.316
830.0,1.320
831.0,1.323
832.0,1.326
833.0,1.324
834.0,1.325
835.0,1.331
836.0,1.335
837.0,1.338
838.0,1.338
839.0,1.341
840.0,1.343
841.0,1.345
842.0,1.346
843.0,1.349
844.0,1.349
845.0,1.346
846.0,1.344
847.0,1.348
848.0,1.349
849.0,1.351
850.0,1.352
851.0,1.364
852.0,1.367
853.0,1.364
854.0,1.362
855.0,1.362
856.0,1.361
857.0,1.362
858.0,1.357
859.0,1.360
860.0,1.351
861.0,1.353
862.0,1.354
863.0,1.357
864.0,1.354
865.0,1.347
866.0,1.343
867.0,1.341
868.0,1.339
869.0,1.334
870.0,1.327
871.0,1.318
872.0,1.313
873.0,1.310
874.0,1.308
875.0,1.304
876.0,1.293
877.0,1.285
878.0,1.273
879.0,1.270
880.0,1.265
881.0,1.259
882.0,1.250
883.0,1.240
884.0,1.233
885.0,1.225
886.0,1.216
887.0,1.204
888.0,1.193
889.0,1.182
890.0,1.174
891.0,1.165
892.0,1.156
893.0,1.146
894.0,1.137
895.0,1.127
896.0,1.117
897.0,1.108
898.0,1.099
899.0,1.089
900.0,1.081
901.0,1.072
902.0,1.064
903.0,1.054
904.0,1.045
905.0,1.035
906.0,1.025
907.0,1.016
908.0,1.008
909.0,1.000
910.0,0.991
911.0,0.982
912.0,0.975
913.0,0.967
914.0,0.960
915.0,0.951
916.0,0.943
917.0,0.935
918.0,0.929
919.0,0.921
920.0,0.914
921.0,0.906
922.0,0.899
923.0,0.891
924.0,0.884
925.0,0.877
926.0,0.870
927.0,0.863
928.0,0.855
929.0,0.849
930.0,0.842
931.0,0.836
932.0,0.829
933.0,0.823
934.0,0.816
935.0,0.809
936.0,0.802
937.0,0.796
938.0,0.790
939.0,0.783
940.0,0.776
941.0,0.770
942.0,0.763
943.0,0.757
944.0,0.750
945.0,0.744
946.0,0.738
947.0,0.731
948.0,0.726
949.0,0.720
950.0,0.714
951.0,0.708
952.0,0.702
953.0,0.696
954.0,0.690
955.0,0.685
956.0,0.679
957.0,0.673
958.0,0.668
959.0,0.663
960.0,0.658
961.0,0.652
962.0,0.646
963.0,0.641
964.0,0.636
965.0,0.631
966.0,0.626
967.0,0.622
968.0,0.617
969.0,0.612
970.0,0.607
971.0,0.602
972.0,0.598
973.0,0.593
974.0,0.588
975.0,0.583
976.0,0.578
977.0,0.573
978.0,0.569
979.0,0.564
980.0,0.560
981.0,0.555
982.0,0.550
983.0,0.545
984.0,0.541
985.0,0.537
986.0,0.533
987.0,0.528
988.0,0.524
989.0,0.519
990.0,0.515
991.0,0.512
992.0,0.508
993.0,0.504
994.0,0.500
995.0,0.496
996.0,0.492
997.0,0.488
998.0,0.484
999.0,0.481
1000.0,0.478
1001.0,0.474
1002.0,0.470
1003.0,0.467
1004.0,0.463
1005.0,0.460
1006.0,0.456
1007.0,0.453
1008.0,0.450
1009.0,0.446
1010.0,0.443
1011.0,0.440
1012.0,0.437
1013.0,0.434
1014.0,0.431
1015.0,0.427
1016.0,0.425
1017.0,0.422
1018.0,0.419
1019.0,0.416
1020.0,0.413
1021.0,0.410
1022.0,0.408
1023.0,0.405
1024.0,0.402
1025.0,0.399
1026.0,0.397
1027.0,0.395
1028.0,0.392
1029.0,0.390
1030.0,0.387
1031.0,0.385
1032.0,0.382
1033.0,0.380
1034.0,0.378
1035.0,0.375
1036.0,0.373
1037.0,0.371
1038.0,0.368
1039.0,0.366
1040.0,0.364
1041.0,0.362
1042.0,0.360
1043.0,0.358
1044.0,0.356
1045.0,0.354
1046.0,0.352
1047.0,0.350
1048.0,0.348
1049.0,0.346
1050.0,0.344
1051.0,0.342
1052.0,0.340
1053.0,0.339
1054.0,0.337
1055.0,0.335
1056.0,0.333
1057.0,0.332
1058.0,0.330
1059.0,0.328
1060.0,0.326
1061.0,0.325
1062.0,0.323
1063.0,0.322
1064.0,0.320
1065.0,0.319
1066.0,0.317
1067.0,0.315
1068.0,0.314
1069.0,0.312
1070.0,0.311
1071.0,0.309
1072.0,0.307
1073.0,0.306
1074.0,0.305
1075.0,0.303
1076.0,0.302
1077.0,0.301
1078.0,0.299
1079.0,0.298
1080.0,0.296
1081.0,0.295
1082.0,0.293
1083.0,0.292
1084.0,0.291
1085.0,0.289
1086.0,0.288
1087.0,0.287
1088.0,0.286
1089.0,0.284
1090.0,0.283
1091.0,0.282
1092.0,0.281
1093.0,0.280
1094.0,0.278
1095.0,0.277
1096.0,0.276
1097.0,0.274
1098.0,0.273
1099.0,0.272
1100.0,0.271
